subject,run_rank,mode,channel,std,mad,ptp,line_length,near_flat_ratio,hf_ratio
50,1,raw,Fp1,6.735582951202458e-05,2.4699999809265135e-05,0.0010466000366210937,2.23257154914583e-06,0.009490117843555721,0.009226380947644395
50,1,raw,Fp2,6.518356687969189e-05,2.4800001144409176e-05,0.0011113999938964843,2.95228082615886e-06,0.006813893786149516,0.05475744659572593
50,1,raw,F7,3.245627180755499e-05,1.8e-05,0.0007044999999999999,3.078007852936622e-06,0.015850112894744983,0.07123644051570667
50,1,raw,F3,3.486388653778703e-05,1.7500000000000002e-05,0.0005759999999999999,2.405266699722192e-06,0.010677059169218397,0.05897990500970224
50,1,raw,Fz,3.526499102002515e-05,1.729999923706055e-05,0.0006217999877929687,2.277471528105024e-06,0.010588908477931397,0.05044310266798097
50,1,raw,F4,3.8311175800592115e-05,1.8499998092651364e-05,0.0006867000122070312,2.8796298296698e-06,0.004252884228758776,0.08444661290249886
50,1,raw,F8,5.504547346700964e-05,2.6000000000000002e-05,0.001052,2.632648563205519e-06,0.005493953171878383,0.05355725616303525
50,1,raw,FC5,3.139261239842341e-05,1.890000057220459e-05,0.0007516000061035155,2.651379285384967e-06,0.010474467229593888,0.09626973225120995
50,1,raw,FC1,3.234719621239174e-05,1.740000057220459e-05,0.0005561999969482421,2.3362767425699944e-06,0.014336859360984814,0.0646784228770562
50,1,raw,FC2,3.140083832846704e-05,1.6300000190734862e-05,0.0005935000000000001,2.316804937315014e-06,0.015247749837617147,0.07062861858120492
50,1,raw,FC6,3.537875259473053e-05,1.6999999999999996e-05,0.0007048000183105469,2.754243958595879e-06,0.010418793108781046,0.08906137168617052
50,1,raw,T7,2.6867097758945933e-05,1.5700000762939444e-05,0.00048089999389648434,3.7513517638281825e-06,0.0017722928458754755,0.3302528444264893
50,1,raw,C3,3.2675172095767685e-05,2.030000019073486e-05,0.0005056000061035156,2.453898313738361e-06,0.01331771364943862,0.07735993174424552
50,1,raw,Cz,3.6348802391621406e-05,2.15e-05,0.0005376999969482422,2.5578867474057474e-06,0.008663511799820606,0.06725891667659946
50,1,raw,C4,3.9514900927407894e-05,2.5199998855590823e-05,0.0005783000183105468,2.4132036684304526e-06,0.010012835977854071,0.08739171868652175
50,1,raw,T8,2.7990465356669602e-05,1.4199999809265137e-05,0.0006028000030517578,2.986864842052414e-06,0.011900343323745012,0.20641547631994858
50,1,raw,TP9,2.3704695901470772e-05,1.4300000384449959e-05,0.0004311000061035156,3.808434944599334e-06,0.015521480931613622,0.2549398234426852
50,1,raw,CP5,2.9090209516051387e-05,1.789999961853027e-05,0.00046289999389648433,2.7569676609824426e-06,0.010963162290062169,0.0957017769780428
50,1,raw,CP1,3.515103574191019e-05,2.1999999046325682e-05,0.0005073000030517578,2.4400299556917175e-06,0.011078376790077634,0.07181170101098922
50,1,raw,CP2,3.3535883039776456e-05,2.0299999952316282e-05,0.000519000015258789,2.4309436228458703e-06,0.014279638736816059,0.07378879522615286
50,1,raw,CP6,2.863192149636272e-05,1.6100000858306886e-05,0.000541,2.653083460596649e-06,0.011344375367294547,0.11148429761806423
50,1,raw,TP10,2.4242397971639576e-05,1.3399999856948851e-05,0.0004671999969482422,3.915040992812932e-06,0.016894775911663728,0.3287908426497696
50,1,raw,P7,2.8013466982862374e-05,1.680000019073486e-05,0.0005418000030517578,3.6403080146230463e-06,0.009387275370387554,0.15388020034155692
50,1,raw,P3,2.9378290973238934e-05,1.809999942779541e-05,0.0004693000030517578,2.6617111771200145e-06,0.013965698555565866,0.075312475317194
50,1,raw,Pz,3.133936612666827e-05,1.8800000190734862e-05,0.0004960999908447265,2.5221757916349547e-06,0.014563422102625963,0.07297625161943934
50,1,raw,P4,2.7593556882434892e-05,1.5699998855590823e-05,0.0004938000183105468,2.6254750284397695e-06,0.009392688132133247,0.08352631879528746
50,1,raw,P8,2.9291031059234274e-05,1.8299999237060546e-05,0.0004888999938964843,3.149825591778537e-06,0.011833070427762828,0.1365075516661531
50,1,raw,PO9,2.625703362731918e-05,1.5799999713897706e-05,0.0005251000061035156,5.3891838240616155e-06,0.016778014908292352,0.2205788502135175
50,1,raw,O1,3.128863195705344e-05,1.729999923706055e-05,0.0005194000091552735,3.457107231135183e-06,0.012064272679471714,0.09571053214311898
50,1,raw,Oz,2.612765810063022e-05,1.6199999809265135e-05,0.00043439999389648435,3.32924525039524e-06,0.014994123287247533,0.09818370555568946
50,1,raw,O2,2.743567978277429e-05,1.669999885559082e-05,0.00045480000305175784,3.350805690707093e-06,0.016140082273978534,0.09542185738837075
50,1,raw,PO10,2.567752613775302e-05,1.4900000184774398e-05,0.0006066000061035156,4.982553882556148e-06,0.013533450867588382,0.30673985979727403
50,1,raw,FC3,3.275422971007862e-05,1.899999809265137e-05,0.000518,2.446721604691129e-06,0.009449135504624045,0.0739690254951085
50,1,raw,FC4,3.395824859752272e-05,1.7000000476837157e-05,0.0006564000091552735,2.505025676324439e-06,0.016229779468621447,0.1293534812474407
50,1,raw,C5,2.772574894474509e-05,1.6299999237060548e-05,0.0004701999969482422,2.684402882704459e-06,0.011457270112276144,0.12336444626512823
50,1,raw,C1,3.392121939463271e-05,1.9899999618530275e-05,0.000540000015258789,2.401211994903027e-06,0.01382264699514398,0.07012356654535093
50,1,raw,C2,3.5743868781986754e-05,2.1600000381469724e-05,0.0005913999938964844,2.3712331580928107e-06,0.010530141350406731,0.07323164461863312
50,1,raw,C6,2.99601530026117e-05,1.5399999618530274e-05,0.0005993999938964843,2.729909166006436e-06,0.014258760941511243,0.13065319243879692
50,1,raw,CP3,3.0010708060391544e-05,1.8199999809265136e-05,0.00047509999084472657,2.558665721633487e-06,0.014834060189910613,0.07962916931800627
50,1,raw,CPz,4.161930639976653e-05,2.5300000190734864e-05,0.0005629999999999999,2.441399389507813e-06,0.011762704525068819,0.07128418761828799
50,1,raw,CP4,2.6848771952036803e-05,1.409999942779541e-05,0.0005258999938964843,2.6233866273442817e-06,0.018089449754105966,0.08367496585529247
50,1,raw,P1,3.476730159628184e-05,1.8e-05,0.003587800048828125,2.6538458851051056e-06,0.008395193467569825,0.2082849958372405
50,1,raw,P2,3.016301967517561e-05,1.849999904632568e-05,0.0005093999938964843,2.547955404942731e-06,0.012378986112399864,0.07627296763432855
50,1,raw,POz,2.8379762538063878e-05,1.630000042915344e-05,0.0004885999908447265,2.8917288291042033e-06,0.016529801119668428,0.07542128612060989
50,1,raw,FT9,2.405670253725893e-05,1.4299999803304672e-05,0.00040930000305175777,2.6731614182794087e-06,0.019877207633540565,0.11427321261588944
50,1,raw,FTT9h,2.5812349942654498e-05,1.5200000762939452e-05,0.0006208999938964844,3.122909377659987e-06,0.016484179270669017,0.24528443903691807
50,1,raw,TTP7h,2.854742474213893e-05,1.7100000761449337e-05,0.00047530000305175775,2.883746855687708e-06,0.016229779468621447,0.20472948907208124
50,1,raw,TP7,2.809630063015314e-05,1.75e-05,0.00045019999694824214,3.035337010492617e-06,0.01588258946521914,0.1445177798090232
50,1,raw,TPP9h,2.9123674531718647e-05,1.759999847412109e-05,0.0005056999969482421,3.674122803480278e-06,0.009765395440908107,0.18076064102906778
50,1,raw,FT10,5.039292165911233e-05,1.7000000476837157e-05,0.002307799896240234,2.5952092354626133e-06,0.016405307599517492,0.028498997785153374
50,1,raw,FTT10h,3.4792365155057594e-05,1.6099999427795412e-05,0.0007228000030517579,2.6203122539640277e-06,0.010588908477931397,0.07163086504075396
50,1,raw,TPP8h,2.8353862628495173e-05,1.5600000381469724e-05,0.0005991999969482422,3.0997967908894104e-06,0.011180446011567846,0.281010772455704
50,1,raw,TP8,2.978555538423622e-05,1.8099999904632567e-05,0.0005371000061035156,3.2317699971549766e-06,0.014404905508644953,0.4133111879653737
50,1,raw,TPP10h,2.652284293806939e-05,1.4900000095367432e-05,0.0006479999999999999,4.143826857542248e-06,0.014285051498561753,0.5503451894479052
50,1,raw,F9,3.049950520771775e-05,1.740000057220459e-05,0.0005210999908447265,2.8469134484838497e-06,0.015631282669883395,0.04834426082897487
50,1,raw,F10,0.00010743813857238512,2.4299999237060546e-05,0.003603199951171875,2.54247381937941e-06,0.012314032971451548,0.007719389067439617
50,1,raw,AF7,4.917720407359083e-05,2.3799999237060547e-05,0.0007606000061035156,2.6304973819737184e-06,0.006940707061334323,0.024520212431843824
50,1,raw,AF3,4.2774380558532774e-05,1.940000081062317e-05,0.0006873999938964844,2.337796105728191e-06,0.01571634035445857,0.034240068121673184
50,1,raw,AF4,4.7047855998246296e-05,1.9400001525878908e-05,0.0008535000305175781,3.2820818840246574e-06,0.00022810924499706164,0.06676958351801256
50,1,raw,AF8,7.017094196254098e-05,2.520000076293945e-05,0.001851500030517578,3.05325125552854e-06,0.005632365222232532,0.07377046240692413
50,1,raw,PO3,2.6605330975948986e-05,1.5499999999999997e-05,0.0007541000061035155,2.9971702051001922e-06,0.01094305774643531,0.06598076037870637
50,1,raw,PO4,2.5804372300848532e-05,1.4599999666213988e-05,0.0004713000030517578,2.8516328379581577e-06,0.019287216603260028,0.08363352849002323
50,2,raw,Fp1,0.00011370736122483321,2.770000076293945e-05,0.002571199951171875,3.4757934654339953e-06,0.009168550999205525,0.045884058698156725
50,2,raw,Fp2,0.00013420138724162643,3.2599998474121096e-05,0.0038086999511718744,3.832295595910708e-06,0.005961620729695044,0.028487968000115237
50,2,raw,F7,5.854247232797465e-05,2.4100000858306888e-05,0.0017829999999999999,6.7771226070250335e-06,0.011097445456212185,0.10542987770917951
50,2,raw,F3,6.0881432777887944e-05,2.320000171661377e-05,0.0017375999755859374,4.026812798929717e-06,0.012464095825948786,0.14439374093670299
50,2,raw,Fz,5.972385440035428e-05,2.4499998092651368e-05,0.0013812000122070314,3.406741052795861e-06,0.010377834137994256,0.09981195649620547
50,2,raw,F4,6.410912546727605e-05,2.389999771118164e-05,0.0023115,4.761511307244435e-06,0.0051449917496791545,0.2314257819224344
50,2,raw,F8,7.347765157342685e-05,2.779999828338623e-05,0.0021670999755859376,6.680266822187095e-06,0.009564260832365704,0.1316811151902504
50,2,raw,FC5,5.1561813893675386e-05,2.2400001525878906e-05,0.004412800048828125,6.2209652256435746e-06,0.0060364847521848074,0.4240339205289677
50,2,raw,FC1,7.509206763024848e-05,2.3800001144409175e-05,0.0015237000122070312,3.4842571503760365e-06,0.008799578316934547,0.1595802581723001
50,2,raw,FC2,5.509879375908651e-05,2.179999923706055e-05,0.0017082999877929684,3.7768618043085022e-06,0.01027088553443745,0.22711851906051356
50,2,raw,FC6,6.19366042663521e-05,2.5999999523162838e-05,0.0024594000244140624,7.108794695665241e-06,0.009031045651775347,0.4170520589666497
50,2,raw,T7,6.206287122712181e-05,2.5700000762939457e-05,0.002670800048828125,7.5919724328662016e-06,0.00486845321762513,1.2695255735529702
50,2,raw,C3,7.291537190677376e-05,2.630000066757202e-05,0.002010599975585937,4.0097802288529876e-06,0.010560410682637657,0.3232483603209056
50,2,raw,Cz,8.054929000770428e-05,2.4999999999999998e-05,0.0015534000244140625,3.821524951987694e-06,0.009394670903868484,0.1601541785116675
50,2,raw,C4,5.805027424912076e-05,2.530000019073486e-05,0.0025752999267578125,4.651107875453726e-06,0.010249495813726089,0.5979066742093901
50,2,raw,T8,5.658447802082032e-05,2.45e-05,0.001628500061035156,4.577533821355563e-06,0.010768196540976594,0.6310170776570794
50,2,raw,TP9,4.525237666499332e-05,2.1799999237060546e-05,0.0007752000122070312,4.54854912926824e-06,0.01276355191590784,0.31648450795419397
50,2,raw,CP5,5.089550430000498e-05,2.1900001525878908e-05,0.002013200073242187,4.108316407082663e-06,0.011820876367414287,0.43102775745433985
50,2,raw,CP1,7.439438522075115e-05,2.5499998092651365e-05,0.001361200012207031,3.4847708120323377e-06,0.008982918780174785,0.16957724372911132
50,2,raw,CP2,5.972085290265792e-05,2.6299999952316286e-05,0.0013760999755859375,3.5752361876958144e-06,0.00992788608445884,0.20598216205016612
50,2,raw,CP6,5.238950784512811e-05,2.4000001907348635e-05,0.0017973999633789063,4.184174495129859e-06,0.007865305873006172,0.4370623743398605
50,2,raw,TP10,4.676824367721396e-05,2.4800000190734865e-05,0.0007228999938964844,4.546662932205197e-06,0.011296828209985944,0.3430825440483599
50,2,raw,P7,4.8030786641715904e-05,2.44000015258789e-05,0.001044199981689453,4.504637449947476e-06,0.0062954531565116425,0.23834495000573402
50,2,raw,P3,8.298797071451292e-05,2.6699999809265136e-05,0.0016031000061035156,3.5639193331630128e-06,0.009239595428711117,0.1706963343634729
50,2,raw,Pz,6.108086140748764e-05,2.8799999713897704e-05,0.0010727000122070312,3.4032289339502512e-06,0.010212827721078042,0.14045643573224953
50,2,raw,P4,6.631688447728577e-05,2.7500000476837158e-05,0.001483,3.6772209256098685e-06,0.009907260282344314,0.18924191122090434
50,2,raw,P8,6.189430720847849e-05,2.8299999237060545e-05,0.0012531000061035155,4.455529896187065e-06,0.007377925808225876,0.24633380899134022
50,2,raw,PO9,5.135963605802803e-05,2.2600000739097596e-05,0.0012520999755859376,5.442943108722899e-06,0.012448053535415267,0.442222309977788
50,2,raw,O1,5.282884657561332e-05,2.2800000190734864e-05,0.0010273999938964844,3.7532133101893425e-06,0.012355619385198312,0.11609197616270442
50,2,raw,Oz,5.440388789491927e-05,2.2699999809265137e-05,0.001111800018310547,3.731779191656344e-06,0.011981299272749496,0.13129556941505477
50,2,raw,O2,5.169024450783527e-05,2.5300000190734864e-05,0.0009121000061035156,3.979053871375616e-06,0.009322862555766058,0.1349002906661804
50,2,raw,PO10,6.183896108861254e-05,2.4899999141693114e-05,0.0014772999877929688,5.373404537335309e-06,0.00934807186946159,0.2613498445831195
50,2,raw,FC3,5.42981249765049e-05,2.270000076293945e-05,0.002162300048828125,4.071307271802383e-06,0.009429811159322862,0.3378831460912222
50,2,raw,FC4,5.896597302443274e-05,2.5100000381469724e-05,0.0026645999755859373,5.3227421801068405e-06,0.010600898368269877,0.5542705221233599
50,2,raw,C5,5.222935010693757e-05,2.3999999999999997e-05,0.0030804000244140624,5.982672863801188e-06,0.009433630752307035,0.6183739544845385
50,2,raw,C1,0.00013098555743657327,2.5800000190734862e-05,0.0022888999633789062,3.7991635088824395e-06,0.01042290533520748,0.17258357065896948
50,2,raw,C2,5.7201288052402755e-05,2.2400000572204592e-05,0.0015822999877929686,3.6868427162898957e-06,0.011652814276110738,0.24080900419703513
50,2,raw,C6,6.121424290261678e-05,2.509999942779541e-05,0.0016797999877929686,6.319176051364332e-06,0.01062457984477174,0.3490557052483657
50,2,raw,CP3,8.520294988958489e-05,2.8300000190734862e-05,0.0015864999694824218,3.6833931605382165e-06,0.010177687465623662,0.22593325762350447
50,2,raw,CPz,6.890060695655566e-05,2.930000019073486e-05,0.0012521000061035156,3.4018734379859265e-06,0.009253345963454134,0.1530684112390273
50,2,raw,CP4,5.508000615496896e-05,2.4800000667572022e-05,0.0016062999877929688,4.323215197853346e-06,0.011975187923974822,0.31972003569165
50,2,raw,P1,0.0001154460798711974,3.439999961853028e-05,0.0028375999755859372,3.452964960241568e-06,0.006289341807736968,0.08332527820579506
50,2,raw,P2,5.1688029820313425e-05,2.329999923706055e-05,0.0011507000122070311,3.4545515460200367e-06,0.011113487746745707,0.16535467739361487
50,2,raw,POz,5.1987909200507005e-05,2.2299999713897705e-05,0.0009277999877929687,3.888434260835288e-06,0.012362494652569823,0.11984807797799614
50,2,raw,FT9,5.519510446643284e-05,2.2199999809265135e-05,0.0019563999633789063,4.618516410766575e-06,0.011636008066980383,0.3825065597546256
50,2,raw,FTT9h,5.495267471946567e-05,2.2200000762939456e-05,0.0019958999633789064,4.675389656761861e-06,0.01024262054635458,0.3974365265329834
50,2,raw,TTP7h,5.076570245552778e-05,2.2999999225139617e-05,0.0019311000366210938,4.827302778437549e-06,0.012169987166167573,0.541210896578348
50,2,raw,TP7,4.640283844116535e-05,2.3200000405311582e-05,0.0012692999877929687,4.65494167845683e-06,0.011719275194035324,0.324404996428985
50,2,raw,TPP9h,5.0072996554738786e-05,2.4099999904632567e-05,0.0009364999999999999,4.56635593119689e-06,0.009179245859561206,0.3697868373861352
50,2,raw,FT10,6.032347445935291e-05,2.6100001335144042e-05,0.0015044000244140625,4.784727114648203e-06,0.01062457984477174,0.1789638712074091
50,2,raw,FTT10h,5.7908782735505353e-05,2.65e-05,0.0015947999877929688,4.565906671277356e-06,0.009477938030923425,0.5861435303230926
50,2,raw,TPP8h,5.7467646769450466e-05,2.570000076293945e-05,0.0017872000732421873,4.827648145238677e-06,0.008445120088003423,0.4627016091106571
50,2,raw,TP8,5.8974272564329635e-05,2.5499999999999996e-05,0.0013267999877929685,5.062067436377567e-06,0.010614648903012894,0.7071287097262042
50,2,raw,TPP10h,6.961312479371795e-05,2.55e-05,0.0012725,4.820268533714674e-06,0.009944692293589194,0.3746164558109984
50,2,raw,F9,5.8355404506408796e-05,2.8699999809265134e-05,0.0019019000244140623,4.6999809015741375e-06,0.009079936441972743,0.06899881911386119
50,2,raw,F10,0.0001031565383897099,3.160000038146973e-05,0.0033689999999999996,4.949082496169483e-06,0.009823229236692538,0.02644953785960733
50,2,raw,AF7,8.391715148516763e-05,2.4699999809265135e-05,0.001865,4.658221108262533e-06,0.005694249220803031,0.09574182525963595
50,2,raw,AF3,7.149212516238152e-05,2.3100000858306884e-05,0.0013275,3.7608838243621045e-06,0.01220665525881562,0.06183137383496011
50,2,raw,AF4,8.135760967115545e-05,2.630000305175781e-05,0.0015372000122070312,4.30660568179617e-06,0.00027424677626352136,0.0961537174368087
50,2,raw,AF8,0.00012290536291064495,3.310000133514404e-05,0.0038794000244140626,4.934373923731504e-06,0.005478060257898918,0.040063525277439116
50,2,raw,PO3,7.90959945819878e-05,2.5799999237060545e-05,0.0015713999633789062,3.6750837017381433e-06,0.009106673592861944,0.12335511543550776
50,2,raw,PO4,5.160923248870941e-05,2.3799999237060544e-05,0.0009697000122070312,3.834643505759404e-06,0.011344191162989672,0.1419737431117742
51,1,raw,Fp1,0.00012622313208443924,4.250000381469726e-05,0.0024362000732421874,3.472748032881879e-06,0.005067991631799163,0.030872778879529453
51,1,raw,Fp2,0.0002782354862621284,4.769999885559082e-05,0.00430189990234375,3.2597117905191504e-06,0.004497160789001793,0.023673436473344453
51,1,raw,F7,7.013712166635282e-05,2.8800001144409178e-05,0.0033183999023437497,5.7939657023523736e-06,0.008643156007172744,0.12969389958993835
51,1,raw,F3,6.645761544028893e-05,2.710000133514404e-05,0.001888899963378906,3.966850693445867e-06,0.009256575014943216,0.05634256665773916
51,1,raw,Fz,6.735677650883691e-05,2.930000114440918e-05,0.0017659000244140623,3.3927630709992524e-06,0.008901673640167364,0.050672593938508766
51,1,raw,F4,6.605052448782185e-05,2.5399997711181642e-05,0.0018772000122070313,3.7082831828006684e-06,0.005146443514644351,0.04942294958740846
51,1,raw,F8,6.768300343966271e-05,2.8899999618530273e-05,0.0019450999755859374,3.3511201785073424e-06,0.008172444710101614,0.04085155938095092
51,1,raw,FC5,6.102706201967341e-05,2.239999961853027e-05,0.0019380999755859375,4.98382179241055e-06,0.004331291093843395,0.07284178925343067
51,1,raw,FC1,6.187302592867187e-05,2.3300000190734863e-05,0.001761399963378906,3.4406721755186327e-06,0.0066452480573819485,0.06050605412129225
51,1,raw,FC2,6.118693193239162e-05,2.2299999237060548e-05,0.0018129000244140625,3.1606199659637534e-06,0.013121637776449492,0.056280293168528714
51,1,raw,FC6,5.950851480337889e-05,2.190000009536743e-05,0.0018277000122070312,3.7816210985539875e-06,0.01323371189479976,0.0584102574397997
51,1,raw,T7,5.891632164459919e-05,2.3100000381469727e-05,0.0017894999999999999,4.106490664717007e-06,0.009209503885236102,0.08587485735590485
51,1,raw,C3,6.034176679063251e-05,2.299999964237213e-05,0.0017822000122070312,4.118980136715492e-06,0.008725343693962941,0.07180288884587797
51,1,raw,Cz,5.970387409740557e-05,2.2599998474121093e-05,0.0018096000366210935,3.1691227382793447e-06,0.007493275552898984,0.059404340153881054
51,1,raw,C4,5.899346268348073e-05,2.1899999141693116e-05,0.001813200012207031,3.4512052829033102e-06,0.012742080095636581,0.059047719340945444
51,1,raw,T8,5.664804009651364e-05,2.0799999997019766e-05,0.001803,3.651752131442172e-06,0.013923341303048417,0.061742327768245626
51,1,raw,TP9,0.0011907691829170007,2.3500000715255738e-05,0.0065535,2.6470066130734305e-06,0.022499252839210997,0.013183585106124175
51,1,raw,CP5,0.0001274213098235089,2.0799999713897706e-05,0.0017426999511718749,3.6883419638311373e-06,0.013697698744769874,0.05646011457737532
51,1,raw,CP1,5.767097045535192e-05,2.0099999904632568e-05,0.001771699951171875,3.2977336330520774e-06,0.013888971906754333,0.059836057422554954
51,1,raw,CP2,5.775855005232937e-05,2.080000114440918e-05,0.0017926000366210938,3.2128626822763493e-06,0.0075306335923490736,0.05795946651541892
51,1,raw,CP6,5.630326637760155e-05,1.9999999999999998e-05,0.0018184999999999998,3.818528479442886e-06,0.004330543933054393,0.06596658666910768
51,1,raw,TP10,5.5778806194492526e-05,1.9600000381469726e-05,0.0017742999877929685,3.845338944870974e-06,0.013625971309025701,0.07291216266120253
51,1,raw,P7,5.520884314398857e-05,1.9300001144409178e-05,0.0017517999877929686,3.6241576680691566e-06,0.005194261805140466,0.06153036554582803
51,1,raw,P3,5.656879868182212e-05,1.9899999141693115e-05,0.0017498999633789062,3.345394385458785e-06,0.008156754333532577,0.05916074663387579
51,1,raw,Pz,5.922010794946882e-05,2.2199999988079073e-05,0.0017887999877929687,3.193158839233802e-06,0.00960848774656306,0.05780969150759025
51,1,raw,P4,5.733858921664287e-05,1.959999942779541e-05,0.0017623999633789062,3.3677239001056824e-06,0.013379408248655111,0.05873287264870482
51,1,raw,P8,5.679754039027315e-05,2.139999961853027e-05,0.0017545,3.7105221985559583e-06,0.004300657501494321,0.06462689472297263
51,1,raw,PO9,5.609136567853989e-05,1.9500000953674317e-05,0.0017484000244140623,4.078663909252554e-06,0.012306485355648536,0.06727315162942168
51,1,raw,O1,5.61047338405575e-05,2.069999885559082e-05,0.001715,3.641110011825564e-06,0.01114988045427376,0.059127942185670114
51,1,raw,Oz,5.515109082241716e-05,1.9e-05,0.0017794999999999998,3.716351773105659e-06,0.01560445307830245,0.0625138740644796
51,1,raw,O2,5.515790511855493e-05,1.8800001144409176e-05,0.0017851000366210937,3.911869481531018e-06,0.005945158398087269,0.06884056009319843
51,1,raw,PO10,5.3511578677420445e-05,1.7500001907348633e-05,0.0017395999755859374,3.884944994695604e-06,0.003975642558278541,0.06617867374922212
51,1,raw,FC3,6.213738107581651e-05,2.3e-05,0.001806699951171875,4.365629530972364e-06,0.01167065152420801,0.07315328395065365
51,1,raw,FC4,5.9628790751322676e-05,2.139999961853027e-05,0.0019042999877929687,3.421620984666679e-06,0.009168410041841005,0.057557043043164266
51,1,raw,C5,5.845266292292348e-05,2.1000000000000002e-05,0.0017932000122070312,4.3722103791473675e-06,0.006936640765092648,0.06744056432632801
51,1,raw,C1,5.877112584973794e-05,2.130000019073486e-05,0.0017862000122070311,3.442595143321953e-06,0.010715032875074717,0.06078768002512286
51,1,raw,C2,5.8668990458182906e-05,2.0400001525878912e-05,0.0017707999877929685,3.183384474129711e-06,0.005859234907352062,0.05742709185800335
51,1,raw,C6,5.7005193531313995e-05,1.9899997711181637e-05,0.0018057000122070313,3.678304451077541e-06,0.008803795576808129,0.05480571341824866
51,1,raw,CP3,5.636325761675808e-05,2.0699999809265136e-05,0.0017393999633789061,3.4947162984049243e-06,0.012700986252241482,0.06236788571381972
51,1,raw,CPz,5.793409408214892e-05,1.999999952316284e-05,0.0017887999877929687,3.1588074248155055e-06,0.010803197848176928,0.0585110816485564
51,1,raw,CP4,5.7309014850681336e-05,2.070000076293945e-05,0.0017935,3.3842418408846373e-06,0.009901374775851764,0.05912883528743546
51,1,raw,P1,5.909205196001737e-05,2.130000114440918e-05,0.0017692000122070312,3.2521448400108825e-06,0.004624178123132098,0.0585968819775698
51,1,raw,P2,5.699349884931378e-05,1.9799999237060545e-05,0.0017767999877929686,3.205974526952098e-06,0.00650851763299462,0.0578969910385503
51,1,raw,POz,6.299124901497511e-05,2.35e-05,0.0018281999511718747,3.30332232892403e-06,0.008597579199043635,0.057572162839303095
51,1,raw,FT9,6.000251875793048e-05,2.2899999618530277e-05,0.0017749000244140624,3.865092098257168e-06,0.007201135684399283,0.053113340694648944
51,1,raw,FTT9h,5.9386896792476586e-05,2.020000076293945e-05,0.0017753999633789062,3.828290067810796e-06,0.00582486551105798,0.057598105368665456
51,1,raw,TTP7h,5.695110484242865e-05,2.2199999809265135e-05,0.001755,3.991345630614383e-06,0.010606694560669457,0.06698996995599507
51,1,raw,TP7,5.676476422493138e-05,2.159999990463257e-05,0.0017624999999999997,3.8716146638649425e-06,0.010774058577405857,0.0781534349750903
51,1,raw,TPP9h,5.382061381066119e-05,1.8299999237060542e-05,0.001756700012207031,3.688051173617437e-06,0.004934249850567842,0.06452104294609552
51,1,raw,FT10,6.535427481137554e-05,2.6899999618530276e-05,0.0018027000122070314,3.429271386451575e-06,0.009334279736999402,0.04556305819910732
51,1,raw,FTT10h,6.184490023184022e-05,2.839999914169311e-05,0.0017739000244140625,3.7384121628942486e-06,0.007895995218170951,0.053023862098711474
51,1,raw,TPP8h,5.581077636782131e-05,1.8699998855590818e-05,0.0018270999755859376,3.949893416549201e-06,0.005739689181111775,0.06036375180170555
51,1,raw,TP8,6.20324151209851e-05,2.5199999809265137e-05,0.001818800048828125,4.558115180201337e-06,0.01059175134488942,0.14929730661479693
51,1,raw,TPP10h,5.720055873204166e-05,2.029999923706055e-05,0.001761800048828125,3.969118251420236e-06,0.006063209802749552,0.06701700691331958
51,1,raw,F9,6.812504112207443e-05,2.839999961853027e-05,0.0017287999877929686,3.695837338316267e-06,0.009447101016138673,0.04183828427277542
51,1,raw,F10,6.64338192800177e-05,3.1799999237060545e-05,0.0018489000244140625,3.1307218574557227e-06,0.007011356843992827,0.032706084132823186
51,1,raw,AF7,7.925804540661355e-05,3.289999961853027e-05,0.0018969999999999998,3.6290763059580913e-06,0.003547519426180514,0.03535843919000224
51,1,raw,AF3,7.64430409952923e-05,3.150000047683716e-05,0.0019147999877929685,3.957144538406802e-06,0.009428421996413628,0.04501123589199463
51,1,raw,AF4,7.829637321506688e-05,2.9999999999999997e-05,0.001850800048828125,3.505332566609648e-06,0.0010273460848774657,0.03695461854947992
51,1,raw,AF8,0.00010749570654827234,3.699999999999999e-05,0.0023902000122070313,3.108911169543749e-06,0.0042371488344291695,0.02580116761962873
51,1,raw,PO3,5.708145505509171e-05,2.0999999999999995e-05,0.0017492999877929687,3.3897973595422544e-06,0.006279886431560072,0.05679880147079013
51,1,raw,PO4,5.6681286381879184e-05,2.029999959468841e-05,0.0017855,3.498220635812986e-06,0.011127465630603706,0.058590226552200184
51,2,raw,Fp1,0.00020218953475259377,6.519999885559082e-05,0.0038490999755859375,4.276245513428723e-06,0.004521545001376189,0.10552670065861207
51,2,raw,Fp2,0.0002904068339011452,8.060000228881837e-05,0.004482799926757812,5.039446711641867e-06,0.0026407535398636044,0.13932458557187358
51,2,raw,F7,8.487203700458501e-05,3.710000228881836e-05,0.0014305,4.582524376235341e-06,0.006368696290406434,0.10113687575368933
51,2,raw,F3,8.903408131201894e-05,4.550000095367431e-05,0.001127700012207031,4.654021417849583e-06,0.006413040154133154,0.15416007163268006
51,2,raw,Fz,7.388255565877185e-05,3.2e-05,0.0007558999938964844,3.118654789767887e-06,0.007250221719318634,0.06850893471473767
51,2,raw,F4,7.160774866539696e-05,3.2600000381469724e-05,0.0007457000122070311,4.131898781819637e-06,0.0035322181106455853,0.2215773495619101
51,2,raw,F8,7.89077464790871e-05,3.939999866485596e-05,0.0012566000366210936,4.234028284728808e-06,0.007715832288449188,0.39540033751853904
51,2,raw,FC5,6.480231169438383e-05,3.0000001430511475e-05,0.0014435999755859374,5.631591052470026e-06,0.006676809688369675,0.18468556408407688
51,2,raw,FC1,6.229670275578454e-05,2.880000019073486e-05,0.0010975,3.32562190223246e-06,0.01015474479341876,0.09806248276592912
51,2,raw,FC2,6.106146885552674e-05,2.8599999666213986e-05,0.00073,3.068043800690975e-06,0.0071424202575002295,0.09562390850709025
51,2,raw,FC6,6.697768779392727e-05,2.9899997711181643e-05,0.001119199981689453,4.726055249326208e-06,0.004242484479647696,0.21567713082541876
51,2,raw,T7,5.8117148201222364e-05,2.6700000762939454e-05,0.001418000061035156,4.030530314234475e-06,0.006628643077769962,0.14703181117923236
51,2,raw,C3,5.9226550874259815e-05,2.849999809265137e-05,0.002084300048828125,3.903446745769266e-06,0.008821370684118781,0.13158618805217007
51,2,raw,Cz,5.7351493208468167e-05,2.719999980926513e-05,0.0008317999877929688,3.2466723355827145e-06,0.009462063060032416,0.09932361534876308
51,2,raw,C4,5.507498428198325e-05,2.549999952316284e-05,0.000749,3.36051015190346e-06,0.010865775711795467,0.11719961383790359
51,2,raw,T8,6.0227978251782576e-05,2.7199999570846556e-05,0.001116699981689453,4.723163263016403e-06,0.01036881861830637,0.5301185879985331
51,2,raw,TP9,8.595269450297772e-05,4.319999885559082e-05,0.0014681999511718749,3.892204803714239e-06,0.006578947368421052,0.09536429645679334
51,2,raw,CP5,5.8267049860154955e-05,2.940000057220459e-05,0.002006899963378906,3.9621956812145906e-06,0.009940670968531148,0.12075679958436757
51,2,raw,CP1,5.542079162786231e-05,2.620000171661377e-05,0.0009856000061035156,3.1488509183597066e-06,0.010192207712774091,0.09505267342929442
51,2,raw,CP2,5.47059953186037e-05,2.5399999618530273e-05,0.0007468999938964843,3.0821632021242517e-06,0.010063763417841523,0.09543598482736093
51,2,raw,CP6,5.096522816178066e-05,2.3399999618530275e-05,0.0007151999816894532,4.009873476766656e-06,0.0054711153246276645,0.18240985389075615
51,2,raw,TP10,5.373970120879529e-05,2.7600000381469724e-05,0.0006831000061035155,3.4890596688823263e-06,0.010251078014618184,0.11582846292650593
51,2,raw,P7,6.749090171253081e-05,3.470000457763672e-05,0.001307699981689453,5.722576547339809e-06,0.004617878222575614,0.14856649192540825
51,2,raw,P3,6.126902380276332e-05,3.219999885559082e-05,0.000979,3.5048360075120553e-06,0.007677604819719257,0.09481809327130597
51,2,raw,Pz,5.434946065492874e-05,2.5200001716613772e-05,0.0007926000061035156,3.1165356868693e-06,0.011423896755252454,0.09030704532746739
51,2,raw,P4,5.086121028509578e-05,2.3399999618530272e-05,0.0007103000030517577,3.338461986325007e-06,0.010327532952078045,0.10213643532231224
51,2,raw,P8,5.409376768229574e-05,2.869999885559082e-05,0.0008608999938964844,4.189822310893046e-06,0.0037569956267775773,0.17428686250802744
51,2,raw,PO9,0.00010984186141236178,4.1000000953674314e-05,0.0027564000549316404,4.586076018024205e-06,0.006445151227866296,0.0925878960438186
51,2,raw,O1,8.188535876845206e-05,3.4400000572204586e-05,0.002052199981689453,4.0492559006756765e-06,0.007305269274289734,0.10400471269680646
51,2,raw,Oz,0.00011186070898035827,3.4600000381469725e-05,0.0031342000427246096,3.994000961101416e-06,0.0075965625860118045,0.0925710420549371
51,2,raw,O2,5.5644080971717685e-05,3.25e-05,0.000853199981689453,3.7461295800584886e-06,0.00951022967063213,0.10873815084672339
51,2,raw,PO10,5.4657053390905583e-05,2.69000015258789e-05,0.0009356999816894532,3.768420799656273e-06,0.005663017217651916,0.10873214410135386
51,2,raw,FC3,6.475236283909734e-05,2.859999847412109e-05,0.0021205999755859375,4.614007168015936e-06,0.006666105997125294,0.1635147728873732
51,2,raw,FC4,6.119029116172987e-05,2.8699999809265138e-05,0.0009701000061035156,3.6341523680434484e-06,0.009131777730205817,0.15344533012183023
51,2,raw,C5,5.784173497596574e-05,2.6199999332427977e-05,0.0011482999877929687,5.684323208403242e-06,0.0064627358634820635,0.1840777124326772
51,2,raw,C1,5.706216809830469e-05,2.7699999809265137e-05,0.0011107000122070312,3.4903435023114725e-06,0.009871861524817272,0.09930905195425317
51,2,raw,C2,5.698859299763118e-05,2.760000228881836e-05,0.0007307000122070312,3.080267192601754e-06,0.00829230251689654,0.09791326230922553
51,2,raw,C6,5.29651716935851e-05,2.420000004768371e-05,0.0007162999877929687,4.062199961321383e-06,0.009472002201902198,0.14939976867301702
51,2,raw,CP3,5.5189200392171664e-05,2.729999828338623e-05,0.0014385000000000001,3.4322599561321077e-06,0.010377228661426955,0.10465954642454596
51,2,raw,CPz,5.4748734743748094e-05,2.5300001144409174e-05,0.000812,3.0593114147006756e-06,0.010237316125875409,0.09373370485223738
51,2,raw,CP4,5.253849056229829e-05,2.4e-05,0.0007033999938964844,3.617154052919997e-06,0.011439187742744427,0.1057943210621259
51,2,raw,P1,0.0006109931691680278,7.449999237060546e-05,0.0065535,4.41903858611482e-06,0.0025696504480259333,0.06998470152889556
51,2,raw,P2,5.168394961095753e-05,2.4700000762939453e-05,0.0007285,3.124772182314972e-06,0.009661610446802655,0.09361001828026762
51,2,raw,POz,5.0940760632644344e-05,2.400000190734863e-05,0.0007355,3.607237228819443e-06,0.011990427841830026,0.09055845324311615
51,2,raw,FT9,5.9624655934782087e-05,3.0499998092651368e-05,0.001617700012207031,3.617160707026687e-06,0.010294657328970305,0.10474383500861296
51,2,raw,FTT9h,6.018079683415225e-05,2.8400001525878906e-05,0.0016579000244140623,3.7572127288869267e-06,0.009426129239426283,0.11537765448926694
51,2,raw,TTP7h,5.577638869829587e-05,2.959999847412109e-05,0.001415200012207031,4.97408794715142e-06,0.009631793021193309,0.16886170637340944
51,2,raw,TP7,6.664650554747262e-05,3.329999923706055e-05,0.0009383000183105469,4.992538376416334e-06,0.00838634208997217,0.23693996543658757
51,2,raw,TPP9h,5.775306151138069e-05,3.099999618530273e-05,0.0009271000061035156,4.909099906027058e-06,0.004969570934890975,0.12554089509588903
51,2,raw,FT10,5.337525049928514e-05,2.5499999046325682e-05,0.0007436000061035156,3.342492309216659e-06,0.01067234472002202,0.12933182947799515
51,2,raw,FTT10h,5.623032127534312e-05,2.9599998474121094e-05,0.0008007000122070313,3.828572681899822e-06,0.006133979632404661,0.14594732524981427
51,2,raw,TPP8h,5.168840609623722e-05,2.410000038146972e-05,0.0007087000122070312,4.284998991937427e-06,0.007170708584360378,0.13936234799653296
51,2,raw,TP8,5.402092759967039e-05,2.7799999237060546e-05,0.0008223999938964843,7.284384602389225e-06,0.009189118933300712,1.2222987937423846
51,2,raw,TPP10h,5.151321995353433e-05,2.6900001525878907e-05,0.0007351999816894531,4.443235834636799e-06,0.007783877182788465,0.16981556228407865
51,2,raw,F9,6.986489415310344e-05,3.510000038146973e-05,0.0016652000122070313,3.812562547241607e-06,0.007310621119911924,0.0819752070060537
51,2,raw,F10,6.209799446779472e-05,2.9200000762939454e-05,0.0007988999938964844,3.123450963818512e-06,0.00740083794611456,0.07330626503319443
51,2,raw,AF7,0.00011278189588923217,5.160000133514404e-05,0.0015604000244140623,4.070768352750565e-06,0.005040674026728646,0.08692545348294875
51,2,raw,AF3,0.00010247222074051746,5.5500000715255736e-05,0.0009346000061035155,4.69459448556524e-06,0.005284565277225603,0.12926990413447967
51,2,raw,AF4,0.00010144278041699806,4.6900001525878905e-05,0.0008406999816894531,4.412396109162947e-06,0.0015642680204287593,0.08869284429142427
51,2,raw,AF8,0.00015075632641476316,5.3599999427795405e-05,0.0028350999450683593,4.239485264995095e-06,0.006023119973087862,0.17252456494684357
51,2,raw,PO3,5.551662122716389e-05,2.9200000762939454e-05,0.0008097000122070312,3.5786221123775494e-06,0.0034611150188079147,0.0887567404039662
51,2,raw,PO4,4.9670145465431554e-05,2.6000001907348633e-05,0.0007185,3.5328000321906015e-06,0.010744976910608887,0.09677204905734217
53,1,raw,Fp1,0.000127361694688318,4.390000152587891e-05,0.001002300018310547,3.5893768305003685e-06,0.005618761958938822,0.01670425781356641
53,1,raw,Fp2,3.153985203512706e-06,1.4999999999999992e-06,2.699999856948852e-05,2.662645229255292e-07,0.0,0.16843176108889993
53,1,raw,F7,5.049942561027917e-05,2.190000057220459e-05,0.001356699981689453,4.403367574301155e-06,0.01395705124890107,0.10626612122257678
53,1,raw,F3,4.8830088673585454e-05,2.3100000381469723e-05,0.001021699981689453,3.6584342574465003e-06,0.011468299115684956,0.09256159396110336
53,1,raw,Fz,5.508491224858934e-05,3.0199999809265133e-05,0.0007681000061035156,3.5335217038777648e-06,0.008350571443346952,0.07026201784127102
53,1,raw,F4,5.305115235338415e-05,2.6799999237060546e-05,0.0009778999938964842,3.950916283338914e-06,0.004961989967419972,0.09633537545924321
53,1,raw,F8,5.5745248416245456e-05,2.350000035762787e-05,0.0016511999511718749,4.679814590708764e-06,0.011862620882246471,0.07546599838594752
53,1,raw,FC5,3.844371354964359e-05,1.890000152587891e-05,0.001778199951171875,4.591860222527955e-06,0.0011946010239437348,0.1758866670438346
53,1,raw,FC1,3.984745790534103e-05,2.240000057220459e-05,0.0006365000152587889,3.5377214922662064e-06,0.01063375911465067,0.10739586047049997
53,1,raw,FC2,4.631165957859199e-05,2.9899999976158145e-05,0.0007928999938964843,3.580632131260367e-06,0.00894851838444433,0.0993942952174078
53,1,raw,FC6,3.866868580065343e-05,1.940000081062317e-05,0.0012794999999999998,5.284116062789798e-06,0.014489062419196359,0.163482047601837
53,1,raw,T7,3.4355606482740336e-05,1.8300001144409177e-05,0.0012283999938964842,6.074656018306495e-06,0.012154160417851787,0.4099364765382302
53,1,raw,C3,3.303847124610826e-05,1.8700000762939456e-05,0.0009875999755859374,3.931411174444449e-06,0.006448776956094534,0.14074265987545026
53,1,raw,Cz,5.426998520602692e-05,3.5699999809265135e-05,0.0006583000183105468,3.5362236508251843e-06,0.005492061850338729,0.10600135470319037
53,1,raw,C4,3.47100788186457e-05,1.95e-05,0.0018217000122070313,4.250860753096054e-06,0.012640275120235817,0.1683323095904201
53,1,raw,T8,3.639297005631083e-05,1.969999980926514e-05,0.0018452000122070311,8.487421063724811e-06,0.01220587474789264,0.6074659891526859
53,1,raw,TP9,3.0311579255880568e-05,1.5899999618530273e-05,0.0005358999938964844,4.128762365791553e-06,0.010447587526503594,0.13302230355851302
53,1,raw,CP5,2.9260425418954466e-05,1.6100000381469726e-05,0.0010975,4.137879867748071e-06,0.01566168485287273,0.11895119007035011
53,1,raw,CP1,3.4254717413713764e-05,1.9799999237060545e-05,0.0005479999999999999,3.8092070306011886e-06,0.013008093292651395,0.10935719585286643
53,1,raw,CP2,3.310416385629103e-05,1.9299999237060546e-05,0.0008288000183105469,3.7732487406906596e-06,0.009001525572736205,0.11523718012916703
53,1,raw,CP6,3.16180921207229e-05,1.7600002288818353e-05,0.0012454000244140624,4.424656116905645e-06,0.0024098877799038116,0.14495877855293499
53,1,raw,TP10,5.1079299444089855e-05,2.7699998855590816e-05,0.0008202999877929688,4.183537962569504e-06,0.009428815224698763,0.1502789442146229
53,1,raw,P7,3.07815135945377e-05,1.7799999237060537e-05,0.0005594999999999999,3.989844719478776e-06,0.0027053058902621915,0.07813749471982441
53,1,raw,P3,3.349316688496957e-05,1.8000000238418576e-05,0.0005616999816894532,3.68610098944604e-06,0.015436727517195015,0.0858452853368048
53,1,raw,Pz,3.239952070474796e-05,1.909999847412109e-05,0.0005682999877929687,3.575309752907578e-06,0.005073822206133319,0.0982278034453333
53,1,raw,P4,3.0015046935689344e-05,1.7599999666213986e-05,0.0008563999938964843,4.063048213728624e-06,0.015605445518953301,0.09743410523495225
53,1,raw,P8,3.822650418870924e-05,2.089999771118164e-05,0.0008465,3.928394158114348e-06,0.0054623261105652375,0.08512428754169381
53,1,raw,PO9,4.4166734481502206e-05,2.3499999284744263e-05,0.0008136000061035155,5.561586311347547e-06,0.009170890003620003,0.12345850281417906
53,1,raw,O1,3.241452067737865e-05,1.8400000572204593e-05,0.0006287999877929687,4.36974393036992e-06,0.01193825308993122,0.0895451159608247
53,1,raw,Oz,3.0536026784247645e-05,1.709999942779541e-05,0.0006697999877929687,4.2996950131335814e-06,0.014043026322593992,0.10214462147217603
53,1,raw,O2,3.291416251082816e-05,1.9100002288818356e-05,0.0006327000122070312,4.210999580212678e-06,0.004786807674406578,0.07613932888847934
53,1,raw,PO10,3.2704924737161036e-05,1.770000076293946e-05,0.0006728999938964843,4.422476485139676e-06,0.0038520711589181363,0.09614419682640561
53,1,raw,FC3,4.2623740541100475e-05,2.5000000476837158e-05,0.0012807999877929687,3.941680872512396e-06,0.011037777318094844,0.14283013528821423
53,1,raw,FC4,5.028090862288427e-05,3.089999997615814e-05,0.0015025,4.1206538768655256e-06,0.007223199048456327,0.13410764791652333
53,1,raw,C5,3.5541290971389646e-05,2.010000038146973e-05,0.0011955,4.9584289574596515e-06,0.004963282825670994,0.1816760629627849
53,1,raw,C1,3.377581681182929e-05,1.930000019073486e-05,0.0005597999877929687,3.7594524479083295e-06,0.010079769354088018,0.11447376033043834
53,1,raw,C2,4.452971257975324e-05,2.8800001144409178e-05,0.0008488000183105469,3.6456642346338578e-06,0.007896131768112944,0.11254084403941461
53,1,raw,C6,3.244391293734087e-05,1.7299999237060545e-05,0.0012702999877929689,5.607570013967102e-06,0.006499844857009877,0.26565761571521074
53,1,raw,CP3,4.437534380813101e-05,2.7799999237060546e-05,0.0006585999908447265,4.0899151176939784e-06,0.009647954698246884,0.11340011188991486
53,1,raw,CPz,3.32481359027011e-05,1.920000076293945e-05,0.0005901000061035156,3.5569101693806343e-06,0.011126338108289807,0.10819857856445854
53,1,raw,CP4,5.407420025828393e-05,3.6299999237060546e-05,0.0012268000183105468,4.218813362209456e-06,0.0069407095206081605,0.13363742615056756
53,1,raw,P1,3.02239272645456e-05,1.7600002288818353e-05,0.0005485999908447266,3.5865633812384357e-06,0.001449940528520453,0.09572402796888686
53,1,raw,P2,3.465467539857335e-05,2.1299999237060547e-05,0.0006677999877929687,3.642866550706936e-06,0.002850106014376584,0.09783112213681178
53,1,raw,POz,4.300910549235341e-05,3.0399998664855955e-05,0.0005326000061035155,3.7152537985079044e-06,0.008207710606609091,0.08171436153389654
53,1,raw,FT9,4.601505803067197e-05,1.759999942779541e-05,0.0017017000122070312,4.5125459036864564e-06,0.005544422609505094,0.13884378419057114
53,1,raw,FTT9h,4.286705006807731e-05,1.7700000762939445e-05,0.0015538999633789062,4.930332864717857e-06,0.002358819878988468,0.15467370696047505
53,1,raw,TTP7h,3.182395956396268e-05,1.7900001525878905e-05,0.0009133999938964843,4.706972710303226e-06,0.007936210373894605,0.14605381637150988
53,1,raw,TP7,2.8689818479909427e-05,1.5499999999999997e-05,0.0007312000122070312,4.071147975229459e-06,0.007826963851683301,0.10455291525423219
53,1,raw,TPP9h,3.0288710864877293e-05,1.669999885559082e-05,0.000474,4.016807361269755e-06,0.0027983916843357295,0.09806616782755588
53,1,raw,FT10,3.6196156648918816e-05,1.740000057220459e-05,0.0009023999938964843,4.368209369908637e-06,0.016663649997414282,0.13541291189270044
53,1,raw,FTT10h,3.3466293635165575e-05,1.9e-05,0.000810699981689453,5.449472156407823e-06,0.014142576407922635,0.17728531588209953
53,1,raw,TPP8h,3.215944892755117e-05,1.7100002288818355e-05,0.001485800048828125,7.982109609831471e-06,0.0030362776025236594,0.30625605749085166
53,1,raw,TP8,3.39371621655429e-05,1.989999961853027e-05,0.0012274000244140624,4.718137456936102e-06,0.007817913843926152,0.15047256980503187
53,1,raw,TPP10h,2.9364902715615483e-05,1.6600002288818363e-05,0.0006644999999999999,4.178978432576455e-06,0.0052877902466773544,0.11113990744678715
53,1,raw,F9,4.878544974765113e-05,1.94000015258789e-05,0.0010872999877929686,4.285011432444943e-06,0.006519237730775198,0.07687498734653382
53,1,raw,F10,6.0985858656272556e-05,2.2000000953674313e-05,0.0012573999633789061,4.268965821667317e-06,0.00785411387495475,0.05538140806773385
53,1,raw,AF7,8.928814986395197e-05,3.360000228881835e-05,0.0011737999877929686,3.791498415617668e-06,0.00555024047163469,0.03170289181542869
53,1,raw,AF3,7.650067362622593e-05,3.2400001525878905e-05,0.0007902999877929687,3.5588635486426687e-06,0.009297590112220096,0.04187077347345617
53,1,raw,AF4,7.355012701912871e-05,3.150000762939453e-05,0.0008087999725341797,4.088686584193171e-06,0.00024111806381548327,0.0470418504378696
53,1,raw,AF8,0.0001316516776139693,4.19000015258789e-05,0.0028376999511718747,4.06947553515672e-06,0.006554144903552775,0.030008332117029374
53,1,raw,PO3,3.23059303626396e-05,1.9e-05,0.0005019000091552733,3.8319280605872245e-06,0.003022702590887935,0.07202663004785186
53,1,raw,PO4,3.2574307586103706e-05,1.919999885559082e-05,0.0005509000244140625,3.88651683705365e-06,0.007004706004033718,0.06376119548868395
53,2,raw,Fp1,0.00014725567582101447,4.350000143051147e-05,0.0027805,4.239714793045692e-06,0.006173268309280104,0.03388731076429956
53,2,raw,Fp2,0.00018031485744808093,4.95e-05,0.0031110999755859375,4.7143527705556025e-06,0.001950012759080212,0.05040424920042977
53,2,raw,F7,9.845134594670501e-05,2.290000057220459e-05,0.0037739999999999996,4.441485684047142e-06,0.012394737588250306,0.13263361588222156
53,2,raw,F3,9.911461496412297e-05,2.2999999999999997e-05,0.0026712000732421874,4.086481894235449e-06,0.007695143043465933,0.10893334328489254
53,2,raw,Fz,0.00011006891979553525,4.080000019073486e-05,0.002650099975585937,3.580301312076286e-06,0.005839405710397233,0.05451711859281681
53,2,raw,F4,0.00010612714713327707,2.749999618530274e-05,0.0027530000000000002,4.415433671107675e-06,0.0032252119424990783,0.12345227711871966
53,2,raw,F8,0.0001576534409910325,2.6200000762939452e-05,0.004656699951171875,4.60861167621713e-06,0.0072946496923644,0.05958040975980853
53,2,raw,FC5,9.507184162732417e-05,2.0100000381469725e-05,0.0035333000488281248,4.4817405343776925e-06,0.006917547988318353,0.15750344400790214
53,2,raw,FC1,0.0001057877846213401,2.849999904632568e-05,0.0026880999755859378,3.6470924523178575e-06,0.010339107998525618,0.07917225625661745
53,2,raw,FC2,0.00010275589592252576,3.419999980926513e-05,0.0026577999267578126,3.7541582201764925e-06,0.007213133346564972,0.08540784208851157
53,2,raw,FC6,9.755829134327282e-05,2.3099999904632566e-05,0.0029270999755859374,4.943053494107737e-06,0.009046896708157306,0.08210295127104532
53,2,raw,T7,9.552729667864494e-05,2.2199998855590818e-05,0.0034867000732421876,5.963731793312411e-06,0.006845246533783209,0.2569152782085667
53,2,raw,C3,9.701683705119212e-05,2.599999809265136e-05,0.0026837999267578126,3.932875706192577e-06,0.0109472908219683,0.1323967709718982
53,2,raw,Cz,9.593179513457469e-05,2.489999961853027e-05,0.0026977999267578127,3.6613507323486343e-06,0.010952961524284783,0.06705833011900669
53,2,raw,C4,9.779904599328713e-05,2.6200000762939455e-05,0.0027724000244140623,4.146079165953209e-06,0.01020159346735093,0.18461197386004266
53,2,raw,T8,9.866019329773817e-05,2.159999942779541e-05,0.00303710009765625,5.674760184957868e-06,0.012039609855680627,0.1967659493206351
53,2,raw,TP9,0.00010326530586915354,2.540000057220459e-05,0.0027096000976562498,4.550508697416564e-06,0.01073534832288979,0.07523237411631778
53,2,raw,CP5,9.547187589828512e-05,2.2999999999999997e-05,0.0028042999267578125,4.313943910376659e-06,0.01154058805183022,0.12710827897397545
53,2,raw,CP1,0.00010451490297832518,3.780000019073486e-05,0.002689300048828125,4.1753339192730355e-06,0.007121693271711702,0.06758256901544135
53,2,raw,CP2,9.727681247616803e-05,3.089999961853027e-05,0.0026897000732421872,3.764781365756509e-06,0.008408233859763532,0.07703085805014648
53,2,raw,CP6,9.357554940032738e-05,2.0900000810623168e-05,0.0027245,4.2506940616946155e-06,0.010929569877229295,0.0982920598881362
53,2,raw,TP10,0.00013467631383386457,2.790000057220459e-05,0.0037233999023437497,4.301941583072626e-06,0.009288610394397346,0.058594407174687925
53,2,raw,P7,9.691543320275872e-05,2.5299999237060543e-05,0.0027028000488281247,4.497039459320967e-06,0.009514729649267062,0.048858808439617644
53,2,raw,P3,9.697070552100578e-05,2.5500000357627868e-05,0.0026985999755859374,4.0170394819912736e-06,0.01088349542090788,0.05651371371151028
53,2,raw,Pz,9.830866128510622e-05,2.4600000381469726e-05,0.002763199951171875,3.7796016199092143e-06,0.009255295018288015,0.05628382621832621
53,2,raw,P4,9.455101617839139e-05,2.2500001907348633e-05,0.0027572999267578124,3.884467222859223e-06,0.010955796875443024,0.06338047162230347
53,2,raw,P8,9.775919618112057e-05,2.2000000953674313e-05,0.002732,4.047439071367119e-06,0.012271399812866823,0.041271433150733054
53,2,raw,PO9,9.644098332288977e-05,2.139999999850988e-05,0.0027712999267578125,6.833044413761188e-06,0.012905100796733675,0.06957994825974609
53,2,raw,O1,9.400514142814474e-05,2.1999999523162842e-05,0.0027819999999999998,5.546576346839934e-06,0.012628654058805183,0.05624337244723938
53,2,raw,Oz,9.818831858879605e-05,2.3699999988079072e-05,0.0027922999267578127,5.1323604482223596e-06,0.0116015481017324,0.05701897542740767
53,2,raw,O2,9.634202139226426e-05,2.1700000762939454e-05,0.002805,4.768338891423452e-06,0.011875159488502651,0.048087971862189
53,2,raw,PO10,0.0001844541348265505,2.5100000858306888e-05,0.00439589990234375,4.946591298806857e-06,0.010725424593835946,0.037109013193859564
53,2,raw,FC3,0.00010207525836106545,2.9499999046325685e-05,0.0028095,3.930771590904397e-06,0.007717117014942301,0.15328019962451506
53,2,raw,FC4,0.00013032127538040178,6.370000171661377e-05,0.003106800048828125,4.6488442712828764e-06,0.00490444866596728,0.17993847163451984
53,2,raw,C5,9.519992758068588e-05,2.2499999284744263e-05,0.0029597000732421875,4.473807222078979e-06,0.010428421560010207,0.15854403840990272
53,2,raw,C1,9.565992191625552e-05,2.680000019073486e-05,0.002665200073242187,3.695669425887481e-06,0.010721171567098585,0.07781090672071543
53,2,raw,C2,9.504797872435299e-05,2.1799999713897703e-05,0.002698699951171875,3.7394825065547403e-06,0.012902265445575434,0.08748936628356764
53,2,raw,C6,9.480084880757028e-05,2.0100000381469725e-05,0.0029885,4.792481919575068e-06,0.01384785505684879,0.11139419987394716
53,2,raw,CP3,9.99046428817899e-05,3.149999928474426e-05,0.0026850999755859374,3.990162391126661e-06,0.008806600697496385,0.08947559172776594
53,2,raw,CPz,9.87787077931478e-05,3.139999961853027e-05,0.0026800999755859376,3.799017622428625e-06,0.008660580112846976,0.06768583345805071
53,2,raw,CP4,9.446606288582276e-05,2.310000085830688e-05,0.0027014000244140624,3.98207326586533e-06,0.01172205052595764,0.12738379143767825
53,2,raw,P1,9.584910863724526e-05,2.9900000572204588e-05,0.0026955,3.902899219300217e-06,0.009514020811477501,0.058820489042740155
53,2,raw,P2,9.811737037456538e-05,2.7600000381469724e-05,0.002729299926757812,3.821171297392806e-06,0.008295528651223454,0.06070997898588497
53,2,raw,POz,0.00010009711415037298,3.159999990463257e-05,0.0027487000732421872,4.064616352605676e-06,0.008413195724290454,0.046691175747158
53,2,raw,FT9,9.430421271873775e-05,1.9599999427795412e-05,0.0026552999267578127,4.361250788446562e-06,0.014568743088831552,0.07900345815287975
53,2,raw,FTT9h,9.481928150648457e-05,2.3499998092651364e-05,0.0030232000732421877,5.57568429585077e-06,0.009606169724120333,0.1863237578291324
53,2,raw,TTP7h,9.570702451157083e-05,2.2899999618530273e-05,0.0027235000000000002,4.702060945139004e-06,0.012077178258527319,0.08313842759647287
53,2,raw,TP7,9.331070546095215e-05,2.0500000476837157e-05,0.002685199951171875,4.785669843097054e-06,0.013198559641611613,0.058705613817301265
53,2,raw,TPP9h,9.692564868562023e-05,2.1000000000000002e-05,0.0027295999755859376,4.410999540075233e-06,0.009305622501346792,0.05431780148385876
53,2,raw,FT10,0.00010059403736082818,2.3600001335144043e-05,0.002778599975585937,4.391521587331682e-06,0.010875698205222717,0.05192317201397357
53,2,raw,FTT10h,9.899923009324055e-05,2.2499999046325684e-05,0.0028445999755859373,4.771092088817651e-06,0.010345487538631659,0.10352414889893759
53,2,raw,TPP8h,9.476731302110617e-05,2.0699998855590822e-05,0.003109,6.093303960465188e-06,0.010891292636593043,0.11515028117878429
53,2,raw,TP8,9.227574750915795e-05,1.7600000381469725e-05,0.0028605999755859377,4.470197887224289e-06,0.016069352689330574,0.07562134788605142
53,2,raw,TPP10h,9.710377192970544e-05,2.0699999809265136e-05,0.0027304000244140624,4.039954167088856e-06,0.01243797669341348,0.041539722031110435
53,2,raw,F9,9.813013049731862e-05,2.1399999618530274e-05,0.0026385,4.153103685656309e-06,0.01342822308542913,0.05176344363135179
53,2,raw,F10,0.0001891183852550473,2.4099999427795407e-05,0.0047305,4.552468629495071e-06,0.011888627406504296,0.024299730964756044
53,2,raw,AF7,0.00011576438183465573,3.0199999809265137e-05,0.0026509000244140622,3.908410510491868e-06,0.00950905894695058,0.029311761991471258
53,2,raw,AF3,0.0001100141215005008,2.7599998474121096e-05,0.002704300048828125,4.027361157783935e-06,0.009012163656468853,0.04622687853147373
53,2,raw,AF4,0.00011664259762604834,2.85e-05,0.0027631000976562495,5.677803575405646e-06,0.0004770478323740395,0.05566226356885227
53,2,raw,AF8,0.00019541748397969492,3.9500001430511476e-05,0.0038485999755859374,4.531830524026937e-06,0.007274093396467152,0.039237574850937824
53,2,raw,PO3,9.611093462303948e-05,2.1600000381469728e-05,0.002735300048828125,4.202602075592296e-06,0.012179250900223993,0.04395163597989238
53,2,raw,PO4,9.418645324965979e-05,2.3e-05,0.002745,4.057188011269511e-06,0.010777878590263404,0.04056234860294751
54,1,raw,Fp1,0.0001370843914323147,4.9800003051757805e-05,0.00295039990234375,8.056865505431963e-06,0.00449194358989979,0.10100029189142477
54,1,raw,Fp2,0.0003485870485674675,7.239999961853027e-05,0.004406699951171875,7.08751254950349e-06,0.0038028083214035513,0.059924313831197375
54,1,raw,F7,0.0001167601260323451,4.979999923706054e-05,0.0016405999755859375,9.304944567352477e-06,0.005168133776004386,0.1885095118984636
54,1,raw,F3,8.210744042555493e-05,4.080000078678131e-05,0.0010140999755859374,6.699946693936669e-06,0.007021564984313606,0.11120048672875814
54,1,raw,Fz,6.048928906295854e-05,3.139999842643738e-05,0.0008991000061035156,5.511847498788236e-06,0.008657975693704122,0.10181445854746798
54,1,raw,F4,6.8331913994834e-05,3.5399999618530276e-05,0.0012144999999999999,8.409809714408553e-06,0.0059920501964606625,0.18636756377163793
54,1,raw,F8,7.834831228575611e-05,3.899999928474426e-05,0.0012588999633789061,8.306974661993718e-06,0.0070733453138801744,0.204239268427055
54,1,raw,FC5,7.089884026148811e-05,3.6400000810623165e-05,0.0017977999267578125,8.548528488883744e-06,0.005679083792756846,0.16713649684151158
54,1,raw,FC1,5.0391367243076816e-05,2.8399999141693115e-05,0.0009131000061035155,5.654898687844906e-06,0.00689972891474521,0.14608093791942708
54,1,raw,FC2,4.912788821804883e-05,2.8099999904632566e-05,0.0010676000061035156,6.496976862924972e-06,0.01006137492004508,0.16899339551949996
54,1,raw,FC6,5.465070374389967e-05,3.060000038146972e-05,0.0017286000366210936,1.0459987479991495e-05,0.008964088818494715,0.1850157639985798
54,1,raw,T7,0.00010921659577618616,4.8700000762939446e-05,0.0016249000244140624,8.4640627499359e-06,0.005459778867533733,0.1718043915136343
54,1,raw,C3,5.269848476079801e-05,3.059999942779541e-05,0.0017159999999999999,6.967820935630558e-06,0.00777390271389845,0.18305737042288497
54,1,raw,Cz,4.761408436380934e-05,2.9799995422363274e-05,0.0008027000122070312,5.978955924455786e-06,0.006764947762785172,0.17359740012196606
54,1,raw,C4,6.227585279366858e-05,3.460000157356262e-05,0.002090699951171875,8.95557685776629e-06,0.007938381407815784,0.25887281093416054
54,1,raw,T8,7.826512021313919e-05,4.449999856948852e-05,0.001434,1.0504348862137576e-05,0.006001949377113095,0.5778210196387226
54,1,raw,TP9,7.390466308197216e-05,4.0600000739097596e-05,0.0008767999877929687,6.334693609972754e-06,0.007397733849106028,0.18650171554299422
54,1,raw,CP5,4.722578898812957e-05,2.8400000810623164e-05,0.0019712999267578126,7.3788144436665696e-06,0.009813133928299474,0.18289123883835323
54,1,raw,CP1,5.010377908754759e-05,3.280000019073486e-05,0.0009155999755859374,5.63268049317757e-06,0.008270384697389662,0.1603310809151284
54,1,raw,CP2,4.931490105221565e-05,3.199999952316284e-05,0.0009461000061035155,6.000354388991288e-06,0.0071403551521427916,0.17008266615170708
54,1,raw,CP6,5.091628828566637e-05,3.110000133514404e-05,0.0019591000366210934,7.614349099801571e-06,0.005145289512960312,0.19737868031883313
54,1,raw,TP10,6.335021357621752e-05,3.489999842643738e-05,0.0008580999755859375,6.528514992240268e-06,0.007775425664768055,0.29860071942403826
54,1,raw,P7,4.416515896164616e-05,2.6900001525878907e-05,0.001291399963378906,6.524686446076501e-06,0.0060491608540708475,0.1750905459473854
54,1,raw,P3,5.3488837101464264e-05,3.480000066757202e-05,0.0010316000366210937,5.845815039775327e-06,0.006777131369742012,0.15191050413271978
54,1,raw,Pz,5.274848319372844e-05,3.5e-05,0.0007442999877929686,5.37991530915832e-06,0.006207547744509762,0.1487759524355873
54,1,raw,P4,4.9940204855571755e-05,3.22999985218048e-05,0.0009747999877929688,5.929062112123486e-06,0.00818357649782218,0.16113596890634377
54,1,raw,P8,6.516803329737221e-05,3.6099999904632564e-05,0.0009587999877929687,6.249049638059139e-06,0.00640705430842801,0.19469851417666126
54,1,raw,PO9,0.00014425195233738522,6.140000081062316e-05,0.002385700012207031,6.825064588133681e-06,0.0050660960677408546,0.18943433435595092
54,1,raw,O1,5.6298444370615935e-05,3.329999923706055e-05,0.0009562000122070311,5.7113057073839765e-06,0.008178246169778563,0.15275431655435215
54,1,raw,Oz,5.660811453660948e-05,3.120000076293945e-05,0.0009795,5.591222465209047e-06,0.008964088818494715,0.1606056326723562
54,1,raw,O2,6.177781885832699e-05,3.639999961853027e-05,0.0007404000244140625,5.769655409237214e-06,0.006706314154305382,0.1601635463903356
54,1,raw,PO10,7.958933936439733e-05,4.439999771118163e-05,0.0012009000244140623,6.5164403412680865e-06,0.005625780512320672,0.2532297507170468
54,1,raw,FC3,5.231225432737509e-05,2.8399999618530275e-05,0.0014750999755859375,6.923119630880627e-06,0.008957235539581493,0.1623093573332673
54,1,raw,FC4,5.636113333107138e-05,3.299999928474426e-05,0.0015764000244140625,8.705129684829089e-06,0.006655295300173616,0.19967239569709508
54,1,raw,C5,7.097617542672864e-05,3.560000038146972e-05,0.0018084999999999998,8.460668773641533e-06,0.006319484633425725,0.16548301859814468
54,1,raw,C1,4.63347033842035e-05,2.7999998092651365e-05,0.0009815,5.80312723115503e-06,0.007891169930858031,0.16627673330808612
54,1,raw,C2,5.198164496562861e-05,3.399999809265137e-05,0.0010339000244140625,6.391491342077949e-06,0.005197831317961682,0.18274492815484275
54,1,raw,C6,5.196654116696512e-05,3.0399998426437377e-05,0.0016699000244140626,9.37711048748589e-06,0.006928664981267704,0.22812498115633106
54,1,raw,CP3,4.661737374117173e-05,2.8400000095367432e-05,0.0013353999633789063,6.242041165303089e-06,0.009389753586549298,0.16843207840099886
54,1,raw,CPz,5.181700301500108e-05,3.4899997711181635e-05,0.0008018000183105467,5.447181358035933e-06,0.007094666626054643,0.15980791074947578
54,1,raw,CP4,4.761790121214225e-05,2.9999999999999997e-05,0.0014792999877929686,7.214066822419308e-06,0.00728427400932046,0.19280231683455523
54,1,raw,P1,0.0011196787385681268,5.310000610351562e-05,0.0065535,5.442090205744614e-06,0.0026042459870244585,0.03823306316234763
54,1,raw,P2,0.00013303231780696043,3.259999942779541e-05,0.0010062999877929687,5.434166357762181e-06,0.005450641162316103,0.08314466154449439
54,1,raw,POz,5.277858650032134e-05,3.409999990463257e-05,0.0006782000122070312,5.748490561090195e-06,0.006691846121044135,0.14173715205448625
54,1,raw,FT9,8.418655044402842e-05,4.2e-05,0.0013289000244140624,7.512496129038766e-06,0.005967682982546983,0.1549984878586868
54,1,raw,FTT9h,6.82469860439165e-05,4.090000057220459e-05,0.0017112999877929688,8.958979898154555e-06,0.0059303706862416615,0.19546343495379992
54,1,raw,TTP7h,6.942438188702614e-05,3.9600000381469725e-05,0.001806500061035156,8.904170833767081e-06,0.005713350187322957,0.19806839767753937
54,1,raw,TP7,4.466858989315249e-05,2.580000042915344e-05,0.0013884000244140625,7.696500103549051e-06,0.008280283878042095,0.2038176024079767
54,1,raw,TPP9h,4.503493957109931e-05,2.759999847412109e-05,0.0009785,6.713589377034545e-06,0.005075995248393287,0.17490576213199388
54,1,raw,FT10,5.4956973053336244e-05,3.0400001525878907e-05,0.001026699981689453,6.823103257856759e-06,0.009373001126983643,0.21672435535213122
54,1,raw,FTT10h,9.709432871153941e-05,4.469999933242797e-05,0.001920800048828125,7.4121157674399886e-06,0.006106271511681033,0.2189152320931194
54,1,raw,TPP8h,5.379514160255003e-05,3.029999923706055e-05,0.0013337999877929686,8.209686737098513e-06,0.0057544698608022905,0.1971164209998862
54,1,raw,TP8,4.577964521828898e-05,2.7499999999999998e-05,0.001254700012207031,7.751165628554765e-06,0.008710517498705491,0.2651567134878825
54,1,raw,TPP10h,6.56921660685522e-05,3.639999961853027e-05,0.0009613999633789063,6.940139153264627e-06,0.006826627273004173,0.21568652149942605
54,1,raw,F9,8.819693043569009e-05,4.590000343322753e-05,0.0014012999877929687,6.895222042850436e-06,0.005366878864487831,0.0826814382242028
54,1,raw,F10,5.43867623997569e-05,2.9700000762939452e-05,0.0013463000183105468,6.778540006329138e-06,0.006526605951691998,0.15165534241517012
54,1,raw,AF7,0.0001898618136742123,5.659999847412108e-05,0.003944999938964844,6.7790447147488136e-06,0.002924065669641497,0.061745143153521434
54,1,raw,AF3,8.693047001847009e-05,4.4299999237060544e-05,0.0009929000244140625,9.150905054827676e-06,0.006270750205598368,0.0950007164665361
54,1,raw,AF4,0.00010597274665126372,5.6099990844726545e-05,0.0012185,9.82358481737362e-06,0.001079772166549907,0.13519831267426471
54,1,raw,AF8,0.0001786937111141121,5.6299999237060544e-05,0.0038244999389648437,6.6736727366474656e-06,0.0027923304194206696,0.051285504152730144
54,1,raw,PO3,4.609333241716271e-05,2.9799999237060544e-05,0.0007647999877929688,5.54588814566589e-06,0.005470439523620968,0.14405477788353044
54,1,raw,PO4,4.523504492036044e-05,2.870000076293945e-05,0.0007574000244140624,5.581974646457093e-06,0.0069598854740946054,0.15043802239355794
54,2,raw,Fp1,0.0001834782185059619,6.310000038146972e-05,0.002155400024414063,7.1677570392225815e-06,0.004845338524767467,0.05740618551737924
54,2,raw,Fp2,0.0002970505665183679,0.00010680000305175781,0.00444139990234375,6.72983642196629e-06,0.0016493618862210685,0.04192774431547207
54,2,raw,F7,0.00015100198690366496,9.139999866485595e-05,0.0020705999755859373,7.6178143328851884e-06,0.0042106045857668185,0.06382386705421488
54,2,raw,F3,0.00010402937268177997,5.2000001430511475e-05,0.001613300048828125,6.961814208357611e-06,0.005211713173264115,0.06927247807182974
54,2,raw,Fz,8.249474008871293e-05,2.9999998092651363e-05,0.0019959999389648434,5.187515876833584e-06,0.008740942028985507,0.04901732122259408
54,2,raw,F4,9.371415655252022e-05,4.85e-05,0.0017117000122070312,7.905797717308887e-06,0.004271441704520874,0.08296831312337105
54,2,raw,F8,0.00012467636007470117,7.529999828338622e-05,0.0016029999999999998,7.688518680855058e-06,0.004086226476314082,0.08539627799968644
54,2,raw,FC5,7.923905974396853e-05,3.0599998474121095e-05,0.001691699951171875,9.391041660848198e-06,0.00447355613238157,0.09484137598784657
54,2,raw,FC1,7.759216157574548e-05,3.8e-05,0.001637800048828125,5.634945474710926e-06,0.006805645684620377,0.09146884659339893
54,2,raw,FC2,6.634017154767119e-05,2.680000001192093e-05,0.0017657999877929687,5.960240414866723e-06,0.010949329439757733,0.09978258448640456
54,2,raw,FC6,0.00011925722253524618,6.689999961853027e-05,0.0024297999267578123,1.0063253616103696e-05,0.0040808187324248325,0.08463124134145222
54,2,raw,T7,0.00016066080218606743,0.00010260000228881836,0.002103699951171875,9.063124836587556e-06,0.002238805970149254,0.20043699530260825
54,2,raw,C3,7.48303112882702e-05,4.2e-05,0.0022447999877929685,7.391466102469263e-06,0.00606275686783474,0.1668836254338956
54,2,raw,Cz,6.124707450054327e-05,2.6600000768899917e-05,0.001589,5.202518115243112e-06,0.007631678563703223,0.10772084040949177
54,2,raw,C4,6.402799655511106e-05,2.9200000762939454e-05,0.0029230999755859373,8.379256895399019e-06,0.009715011897036557,0.1803931421725759
54,2,raw,T8,0.0001672949940868304,8.009999656677246e-05,0.0030289999999999996,7.261219965169334e-06,0.0035934458144062298,0.12226271786062887
54,2,raw,TP9,0.00015009649619813977,9.879999685287476e-05,0.0014107000122070312,5.7525994775280915e-06,0.003067542721176725,0.13055357315402086
54,2,raw,CP5,6.806497008953178e-05,3.5799998521804805e-05,0.0013976000061035156,7.195748834763198e-06,0.007770252000865239,0.09211950178565867
54,2,raw,CP1,7.112253652573207e-05,4.2e-05,0.0015635999755859373,5.885218463902449e-06,0.006199978369024443,0.10711835232576644
54,2,raw,CP2,6.656744490741224e-05,3.70999984741211e-05,0.001663,5.496396951078449e-06,0.007325465065974476,0.10660246221617425
54,2,raw,CP6,6.451675104060451e-05,3.510000228881836e-05,0.0022374000244140624,6.993994627995957e-06,0.005446274064460307,0.11155165220156338
54,2,raw,TP10,8.557609541866878e-05,5.269999921321869e-05,0.0013778000183105469,5.493235852124346e-06,0.005200897685485616,0.12913049263467197
54,2,raw,P7,0.00019461845251371473,0.00011770000314712523,0.0019515,6.197682308945123e-06,0.002506489292667099,0.107568321618652
54,2,raw,P3,6.795102894922327e-05,3.8799997329711904e-05,0.0017232999877929687,5.782509724490924e-06,0.005932295046506598,0.10256014860895263
54,2,raw,Pz,7.023220233143789e-05,4.079999923706055e-05,0.0014397000122070313,5.161468718864031e-06,0.005574032013843824,0.09591598250530767
54,2,raw,P4,6.225013847913777e-05,3.3800001144409174e-05,0.001604899963378906,5.519135516942936e-06,0.007184863724853991,0.1023352940815408
54,2,raw,P8,9.830193641294882e-05,5.839999771118164e-05,0.0015757999877929686,5.904987905400437e-06,0.004776389790179537,0.11223633327930606
54,2,raw,PO9,0.00021322270120854408,0.00012699999380111696,0.0020320999755859374,6.896644501139165e-06,0.0025815217391304346,0.14650404377240245
54,2,raw,O1,7.223179258285466e-05,4.510000038146972e-05,0.001386,6.189579811066871e-06,0.005445598096474151,0.12992977206337247
54,2,raw,Oz,5.568068463312206e-05,2.930000162124634e-05,0.0013755,5.9586808197444625e-06,0.009129623621025307,0.1213067098678759
54,2,raw,O2,0.00011779634734042298,7.760000228881836e-05,0.0015325999755859375,6.0621358950678705e-06,0.0038476097772009517,0.11708845018151957
54,2,raw,PO10,0.00013722674344315088,8.390000343322753e-05,0.0017019000244140625,6.863221976560027e-06,0.0034778552887735235,0.14619350462737668
54,2,raw,FC3,7.422322533787137e-05,2.7900000333786012e-05,0.00242460009765625,7.253152952855e-06,0.010253082414016871,0.13336242284138397
54,2,raw,FC4,6.853749862780244e-05,2.7100000858306883e-05,0.0016802999877929686,8.412113150788122e-06,0.006877974259139087,0.10880227378946017
54,2,raw,C5,0.0001684580636413388,8.739999771118164e-05,0.002172900024414062,8.909082316015751e-06,0.0032777687648712956,0.10707419579260792
54,2,raw,C1,6.216789617962188e-05,2.6700000762939454e-05,0.001641699951171875,5.557945297759606e-06,0.00731938135409907,0.1096475392071123
54,2,raw,C2,0.00010856211609260731,4.949999618530274e-05,0.0019461999511718748,5.881426079765267e-06,0.0029188297642223663,0.11484936061484072
54,2,raw,C6,6.519537939999474e-05,2.8999999999999997e-05,0.0015781000366210936,8.972741436997594e-06,0.007579629028769197,0.13101727713415315
54,2,raw,CP3,8.745450384003783e-05,5.0899999141693116e-05,0.0020587000122070315,6.726464501951185e-06,0.005611210253082414,0.1315718531279729
54,2,raw,CPz,6.269309055317655e-05,3.239999961853027e-05,0.0014865999755859375,5.217560373410165e-06,0.007594500324464634,0.10433898312321814
54,2,raw,CP4,6.246253685888412e-05,3.2400000572204584e-05,0.002085400024414062,6.488773919071255e-06,0.007574221284879948,0.1298503728858659
54,2,raw,P1,6.490669814188784e-05,3.659999942779541e-05,0.0014337000122070312,5.398913248297337e-06,0.005110317975340688,0.1011021044455415
54,2,raw,P2,6.404301466101242e-05,3.4800001502037046e-05,0.0014882000122070312,5.2726710690264566e-06,0.0064196679645252,0.09930515390454772
54,2,raw,POz,6.482658047797041e-05,3.739999961853027e-05,0.0013778999938964843,5.2483898111011976e-06,0.00633314406229721,0.09808161542066873
54,2,raw,FT9,0.00015953527344401568,7.620000267028809e-05,0.0034966000366210936,6.450664784386862e-06,0.004159906986805105,0.055386116348872604
54,2,raw,FTT9h,0.0001958265362083101,0.00012690000295639036,0.0019579999999999997,8.213208088911051e-06,0.0030100854423534503,0.11891051576670461
54,2,raw,TTP7h,0.00011043811504736695,6.769999885559081e-05,0.0015702000122070313,9.310104917234979e-06,0.004160582954791261,0.13091559892306284
54,2,raw,TP7,6.75839657296679e-05,3.8700000762939454e-05,0.0017579000244140625,8.10001561365546e-06,0.006994240752757949,0.14314794350036145
54,2,raw,TPP9h,0.00012347867354238907,7.989999771118163e-05,0.0013836999511718747,5.864072546041909e-06,0.003197328574518711,0.12687447159416693
54,2,raw,FT10,8.599206161057606e-05,5.029999846220016e-05,0.0012835,6.0725418259409285e-06,0.005788313865455332,0.11042967656709947
54,2,raw,FTT10h,0.00011106618332523606,4.869999885559081e-05,0.0029124000244140622,6.9585520511267275e-06,0.005256327060350422,0.1335720619698045
54,2,raw,TPP8h,7.977213038996965e-05,3.960000151395797e-05,0.0023485,8.212320474611284e-06,0.005690974475448843,0.12729186141282822
54,2,raw,TP8,7.306958205851705e-05,3.5700000762939456e-05,0.0023048000488281248,7.672765905085866e-06,0.007180807916937054,0.14547819107019128
54,2,raw,TPP10h,6.734347810947392e-05,3.8199998855590814e-05,0.0014457999877929687,5.687573873087274e-06,0.006446030715985291,0.11724046611801917
54,2,raw,F9,0.00010213772750796018,5.740000343322754e-05,0.0020309999389648437,5.81712849764363e-06,0.004950789530607831,0.05164661310980703
54,2,raw,F10,8.266404524409498e-05,4.05e-05,0.002030199981689453,6.3890593777866665e-06,0.005966769413800563,0.06661849767756284
54,2,raw,AF7,0.0001628109662367301,7.580000305175781e-05,0.0018780999755859374,6.502585169214867e-06,0.003633327925589444,0.0576998194841569
54,2,raw,AF3,0.00016809945457348246,9.809999694675206e-05,0.002186899963378906,7.806690127281732e-06,0.0035670830629461387,0.041001530606447796
54,2,raw,AF4,0.00013206980624530512,6.560000610351561e-05,0.0020940999755859374,7.768352586503543e-06,0.0009639303482587065,0.05360543068288018
54,2,raw,AF8,0.0001321035390368338,5.549999856948852e-05,0.0023750999755859374,5.795564626649429e-06,0.003583982262600043,0.025303629768303807
54,2,raw,PO3,5.801796309971834e-05,3.069999694824219e-05,0.0013931000366210937,5.501934081597024e-06,0.0059106640709496,0.10058034442333214
54,2,raw,PO4,6.869792881017533e-05,3.8399999618530274e-05,0.0014160999755859374,5.449573363695243e-06,0.006510923642656284,0.10085984910536913
50,1,preprocessed,Fp1,24.412659539917637,4.955293281846093,558.4127112985248,2.4079204372971708,0.056030446733319236,0.00971081483799217
50,1,preprocessed,Fp2,23.22689427841762,5.977081510567691,552.734170193013,4.8829035345464336,0.0465762527562147,0.06757017376906892
50,1,preprocessed,F7,9.38431043703282,3.6288108148540137,337.4038712432702,2.0633440636262317,0.07770562116772887,0.07895317302053306
50,1,preprocessed,F3,5.951736240098306,3.1755635203804697,191.114849186223,1.6144576854913193,0.08603014468239345,0.08468040089967392
50,1,preprocessed,Fz,5.354347216259662,2.92566230275973,131.79552223332902,1.3693984472306435,0.09295315190141058,0.06200910747032336
50,1,preprocessed,F4,7.218276778460167,3.5760538210781014,196.14270926482058,2.4937037165185876,0.07598393089074817,0.18003460240150307
50,1,preprocessed,F8,16.10144330231654,4.903955373371962,655.0363231551007,3.005891677123358,0.05714199414021204,0.07446642803081774
50,1,preprocessed,FC5,5.877277887982632,2.641574304376296,240.85062091689863,1.6925725499257402,0.10455794847011206,0.14768155269876881
50,1,preprocessed,FC1,4.120978549817817,2.380280890429245,152.0017939050221,1.1426434061098016,0.11364968133627329,0.0760514015733275
50,1,preprocessed,FC2,3.998474486621824,2.46986674873131,101.50884353602001,1.407941070471086,0.11000694717129308,0.13725413819886045
50,1,preprocessed,FC6,7.333491492288993,3.1048100822286298,273.85969307676766,2.2383824059221604,0.08868819282931102,0.18085772562949695
50,1,preprocessed,T7,8.055812870573684,3.7298530603689106,276.33792077179186,3.972462009649898,0.07331380070679917,0.42777534559578195
50,1,preprocessed,C3,4.528191211616025,2.2581993529614173,193.1255853406977,1.1831510668108822,0.12037937596278733,0.08327149288745506
50,1,preprocessed,Cz,4.327144513583845,2.4889172846375076,133.3381043293358,1.134197738482199,0.11010360346754462,0.0580054185400894
50,1,preprocessed,C4,4.050679543519066,2.460443561826527,101.07734080702201,1.502244739702813,0.10955991180112967,0.2029075869518
50,1,preprocessed,T8,6.758332896608024,3.420890882241971,272.57524236247843,3.190281200020562,0.07943939348174102,0.4292161441151157
50,1,preprocessed,TP9,8.566780238318398,3.8311748832040085,274.9036763590274,3.157191546063794,0.07203914579998187,0.18798788714239584
50,1,preprocessed,CP5,5.575469439979256,2.455894064566688,206.33207956209458,1.440111138684488,0.11035128522668922,0.07528059281076688
50,1,preprocessed,CP1,4.487431622626767,2.2520263786128356,171.67650236524273,1.016700814368015,0.12062705772193191,0.04586457188911237
50,1,preprocessed,CP2,4.244853727814184,2.17345792900376,137.53056329298025,1.0538965266803635,0.12471682725707554,0.05495913468368385
50,1,preprocessed,CP6,4.589406347005216,2.264330370577436,130.4510205402223,1.7060550902690375,0.1192919926299574,0.19966144484587028
50,1,preprocessed,TP10,7.814767785641838,3.8345376108114597,204.7102630278418,3.743143094421907,0.07144712598544115,0.3415593989658861
50,1,preprocessed,P7,7.302106103076049,3.2924633197859006,242.4147766367526,2.429629806752902,0.08390974718337511,0.1514209755592803
50,1,preprocessed,P3,5.585633695586106,2.6980392954279075,193.3245863888416,1.251484905290558,0.09947745189839007,0.03434907447040285
50,1,preprocessed,Pz,4.931493720963309,2.362607029965723,175.00731924771733,1.1287465351668806,0.1149847464282478,0.03643958959940626
50,1,preprocessed,P4,4.551106670493397,2.1560596480899648,136.92821851590884,1.2266794139165107,0.12513365753466035,0.05739620641005141
50,1,preprocessed,P8,5.850987580848697,2.8088822628344468,157.6478754581135,2.0668217448785,0.09826924819524571,0.13619086959391805
50,1,preprocessed,PO9,8.412703620585761,3.868494688330947,264.5233919731614,3.200536306920568,0.07024496330081252,0.1958752744373071
50,1,preprocessed,O1,6.914707810266342,3.254591480062603,205.67951066474208,1.9985428452365561,0.0842963723683813,0.05967368577942737
50,1,preprocessed,Oz,6.737683249750347,3.2756023129917304,182.74312478708063,1.8846614691546315,0.08432657746095992,0.05901954788049514
50,1,preprocessed,O2,6.618816994924662,3.0421953348582775,183.39422838537467,1.8494568643107687,0.08972724801401516,0.05765171230353281
50,1,preprocessed,PO10,8.196589861552756,3.7260210251720425,238.73991940428058,3.5278736708350933,0.07449179931736491,0.33514018515654315
50,1,preprocessed,FC3,4.630042927223156,2.516951025300606,203.2066342170376,1.3340282814540512,0.10684145346905488,0.11835678759984358
50,1,preprocessed,FC4,5.1803645296253755,2.874481901598813,152.48635362368177,2.332333810038961,0.09371432023439152,0.4281083314725519
50,1,preprocessed,C5,5.522533247934759,2.444370541186036,233.72364859681392,1.8741270483884318,0.11344428670673876,0.19299123563157752
50,1,preprocessed,C1,4.31892606809366,2.2853774773979065,169.85128331355838,1.0603415899004252,0.11943093605581902,0.059561670755699965
50,1,preprocessed,C2,3.894334330388133,2.3312653420822977,105.2523160259822,1.2246717710732744,0.11605400670553055,0.10265785292761993
50,1,preprocessed,C6,5.110761875034786,2.615744564284176,147.49721196529052,2.134742736276558,0.10492040958105536,0.34778603432886174
50,1,preprocessed,CP3,5.006452282266089,2.304195953899252,197.41814295339424,1.190124991156202,0.11694807744585738,0.05354134790760003
50,1,preprocessed,CPz,4.737874750906836,2.4540059936706493,163.5493922275531,1.0721552943145147,0.11068354124505392,0.04171314236838102
50,1,preprocessed,CP4,3.9523653648094266,2.0814776702990025,107.52716237763107,1.2586913727354134,0.12929591929199263,0.09952109658967709
50,1,preprocessed,P1,12.983899678934069,2.760271502003906,2913.82250949619,1.3388084790142742,0.09802760745461685,0.23669604105242725
50,1,preprocessed,P2,4.6679069074684625,2.267176502333802,152.63880481829688,1.114453143106908,0.1188691213338569,0.04145073104823213
50,1,preprocessed,POz,5.937728693861044,2.8371265700538615,185.13604545138998,1.4580025627281503,0.09550850273356087,0.03535373555813937
50,1,preprocessed,FT9,10.081981918551849,3.814131876255975,312.6905649589693,1.9691626693781028,0.07400247681759145,0.05465206419189783
50,1,preprocessed,FTT9h,8.771114228837236,3.653994281381853,285.8701313416915,2.9765818792509284,0.0755731416316791,0.22138468059882735
50,1,preprocessed,TTP7h,6.592095126651309,2.957982200511049,242.7538089682298,2.7584746724753693,0.09347872051227837,0.3082211009209591
50,1,preprocessed,TP7,6.871595717628871,2.96039094858292,243.61867892106181,2.1607564687408063,0.09265110097562448,0.13161684029207574
50,1,preprocessed,TPP9h,7.6409786328107945,3.497982759453788,242.9026076337774,2.6427903169432296,0.0771256833902196,0.15307539253907196
50,1,preprocessed,FT10,22.257702629445728,4.02748081042065,1842.9500368149097,2.0053199784368196,0.07032953756003262,0.020893093338340534
50,1,preprocessed,FTT10h,8.764377882747372,3.4702110868935616,354.97718086767856,1.9065826986025205,0.08085903283293563,0.07539354353816091
50,1,preprocessed,TPP8h,6.430224315684207,3.610729620288824,202.7658968053387,3.8557827573141035,0.07638867913130154,0.6815075787584268
50,1,preprocessed,TP8,7.346300813979711,3.932610243788108,230.47713660026005,4.469175749097862,0.06930860543087565,0.7767258823678781
50,1,preprocessed,TPP10h,8.161093926854898,4.329682543850142,211.51204372033743,5.169475595324947,0.06320717672999668,0.7846047777455658
50,1,preprocessed,F9,13.361597889805223,4.251822464816816,436.64695554495296,1.911203695768122,0.06510405654393331,0.029024682106717114
50,1,preprocessed,F10,49.41271075312801,4.7409138926258505,3237.1690592841387,2.2484645258947666,0.059932944694475486,0.00686751933563279
50,1,preprocessed,AF7,15.750073852036218,4.5617992376361665,426.116522146899,2.456826078824833,0.06128613284199716,0.02738952331012919
50,1,preprocessed,AF3,9.812256682740047,3.609863575756907,231.19995873829663,1.8936586983360806,0.07652158153864741,0.0383116041601983
50,1,preprocessed,AF4,12.393929493897154,4.263422361587022,302.2943515584377,3.317062927260743,0.06451203672939257,0.10181925292887163
50,1,preprocessed,AF8,25.10521257030053,6.205480024816675,1238.8149143881406,5.248193525830813,0.045706346089950764,0.09114942341974581
50,1,preprocessed,PO3,6.795642632891861,2.9958561022078336,512.8276966797318,1.7145658614109962,0.09027093968043012,0.03413271128694212
50,1,preprocessed,PO4,5.603210908627609,2.5817930693130484,172.98885001624035,1.4778293982166308,0.10447941522940768,0.046079668739591885
50,2,preprocessed,Fp1,40.69711290149427,7.584713218491639,1275.7717893433155,5.517564010700097,0.03769463525844936,0.03929330284286114
50,2,preprocessed,Fp2,51.96989635699369,7.761400457975154,2193.7912496351237,5.3111543457934065,0.03610711578746337,0.02274555298137004
50,2,preprocessed,F7,18.189299355714752,5.336687876530223,785.5990966210941,3.835772617322492,0.053271424052710424,0.16050187331737117
50,2,preprocessed,F3,10.092029465960634,4.111458874056273,347.47920428161615,3.2335341013464327,0.06687873380401893,0.215485271659607
50,2,preprocessed,Fz,7.040854324106818,3.236416451403614,196.57169604132267,1.7845416008153696,0.08526053820490938,0.12208722654623626
50,2,preprocessed,F4,10.14180684808101,4.470808911817493,444.1548899594713,3.9353282097077953,0.06181776947546208,0.4592747401025827
50,2,preprocessed,F8,17.517486064917573,4.976627661810479,715.5245475591364,3.4746375724443137,0.057001497997696306,0.23948638437938646
50,2,preprocessed,FC5,9.66706473452374,3.8760363600112218,825.2606891790227,3.7159236448313444,0.07094899049278752,0.7903373451273558
50,2,preprocessed,FC1,5.618790307146623,2.931317200308234,293.0893910708264,1.8621450993994517,0.0915927117339174,0.3205318544607384
50,2,preprocessed,FC2,5.5294269171769574,2.961377053994777,292.239429943113,2.257169149967522,0.09171207410015696,0.5927411472889393
50,2,preprocessed,FC6,10.273660440045575,4.428773170306753,498.546951517501,5.1013729287411085,0.0641095269072614,1.1330427871626265
50,2,preprocessed,T7,14.937386119909945,7.4334585999162055,1250.2638867788635,10.266996455708941,0.0370500784807558,1.8361348681351637
50,2,preprocessed,C3,6.467525504890247,2.9336280190214246,636.5449188170298,2.5943721337764893,0.09356219077686996,0.8177497797896293
50,2,preprocessed,Cz,6.893189955977318,2.624442493884424,213.42170032204388,1.5748052002591515,0.10350507588462433,0.24253222011807815
50,2,preprocessed,C4,9.30468266518573,2.8952056901579786,614.2095809447599,2.907684832394781,0.09535262627046319,1.264651640737226
50,2,preprocessed,T8,11.96994279804549,4.919259497484766,660.8654696154385,5.101004844890975,0.05611821648752365,0.9307431910916846
50,2,preprocessed,TP9,10.562724238136212,4.381878780654813,378.4235541229865,4.112567820980819,0.062480230608091575,0.28876246992183746
50,2,preprocessed,CP5,7.649570331604529,2.971600325546466,653.5152619237867,2.8246055822431706,0.09464242019133787,0.6585426871081649
50,2,preprocessed,CP1,6.420385049386447,2.6165178638231614,259.14006437444004,1.4768865361238015,0.10358862954099202,0.1801185106224637
50,2,preprocessed,CP2,5.8883434239322225,2.429716073604915,225.96638805976005,1.5211743955943242,0.11060713667587746,0.29221965989568116
50,2,preprocessed,CP6,7.774077517296217,2.8729379064683442,432.6206840901664,2.541104049495824,0.09543021180851889,0.6956411265524206
50,2,preprocessed,TP10,10.714441183568045,4.185115545421038,292.3156189725318,4.010213541945395,0.06596561170228639,0.27871390583005656
50,2,preprocessed,P7,8.670073936248658,3.587519985846777,278.2937016954571,3.0021949036271045,0.07759747429233037,0.20600770040118807
50,2,preprocessed,P3,7.306049572201294,2.8234204490407375,283.3861605546829,1.6648060805746925,0.09729823284016782,0.12584745186159157
50,2,preprocessed,Pz,6.375427712867057,2.5787176875800424,198.63483203695398,1.3495645047376497,0.10622653783488605,0.07445327160086505
50,2,preprocessed,P4,7.445280806193876,2.759374853959635,236.87112013940936,1.598892391576929,0.09837249413632376,0.1472579587665355
50,2,preprocessed,P8,8.778127928643999,3.489265113081716,230.2587766739222,3.0666840811626197,0.07935210107605173,0.21545684292700046
50,2,preprocessed,PO9,11.58264347010753,5.126931799246536,294.0117764203783,5.590560431206877,0.05434568534886636,0.4997719836969074
50,2,preprocessed,O1,8.748278211827635,3.536603843505198,256.97222507083353,2.1430020908571,0.07652918111448641,0.049197707196931534
50,2,preprocessed,Oz,8.76704611897721,3.4806863922638374,249.65352397134893,2.1400595148229566,0.07809879623053648,0.06547965000502554
50,2,preprocessed,O2,8.562241208719259,3.289093385108546,243.27673882795312,2.1095733058255286,0.08296281265479807,0.06612149564984524
50,2,preprocessed,PO10,10.691162674528336,4.059822969195849,293.0559299754078,3.6201248541156237,0.06644902928555656,0.21126071047953715
50,2,preprocessed,FC3,7.345781449166633,3.6839520719395633,624.2168545561825,3.5430382740445716,0.0738375597557846,0.8708542549218367
50,2,preprocessed,FC4,9.17903668414183,4.2485618037336685,594.8067914359783,4.601174314312844,0.06489731852444243,1.4514458082081165
50,2,preprocessed,C5,8.80365678073694,3.859444129116159,925.8099657481316,4.461996636466017,0.07164726033528888,1.2593253774192712
50,2,preprocessed,C1,7.967247417412433,2.6913113082645097,303.1106974885924,1.725531247415956,0.10085523135410636,0.3167923060269574
50,2,preprocessed,C2,5.2980478762757,2.486831745742929,289.0304735726503,1.8555795913839068,0.10772453553119236,0.5766739896975422
50,2,preprocessed,C6,8.429749960133194,3.8587728639594334,416.550505327248,4.303310371337577,0.07207696485375126,0.9226604291120611
50,2,preprocessed,CP3,7.646041390459993,3.4651794146744646,414.2904655020036,1.9682328455986233,0.07876125736316597,0.28101903012191953
50,2,preprocessed,CPz,6.153257425273394,2.5952333721252128,200.26549082141852,1.37634691040133,0.10414366454400592,0.13394357174541277
50,2,preprocessed,CP4,6.54884505741061,2.4906080564344983,344.7701093764234,1.9275718530940291,0.1090136490865795,0.5543198811602316
50,2,preprocessed,P1,20.94773530914339,3.0560444404034555,1688.1041988270076,1.6385735347895998,0.09053038667438543,0.037116002152168336
50,2,preprocessed,P2,6.59980074746922,2.5146468316501887,220.5071432343388,1.3658213878526395,0.10876895623578842,0.11028092695873383
50,2,preprocessed,POz,7.653035535877423,3.074849580557331,233.23690886702616,1.6010692741664796,0.08871011058923232,0.04156806914847779
50,2,preprocessed,FT9,12.302868537124388,4.256952760314089,1117.86938857541,3.322025745007317,0.06596561170228639,0.6081440100457931
50,2,preprocessed,FTT9h,12.278285242821369,4.270203243127911,1130.8718826573886,3.38121098768422,0.06541654481758447,0.6317763617457125
50,2,preprocessed,TTP7h,9.045750009897274,4.497762569374331,309.66687233338894,5.2557182087347645,0.06022428188616411,0.8575417174814393
50,2,preprocessed,TP7,8.884317508391513,3.9247553068749976,288.15184151866345,3.988132647685804,0.06911677817101046,0.3972007596223747
50,2,preprocessed,TPP9h,9.751618611921407,4.45240082501512,285.89227831681137,4.618702929626529,0.061608885334542875,0.3990384945081673
50,2,preprocessed,FT10,14.061673373195056,4.563386255587057,485.90090987243354,2.7013575983457505,0.06180583323883813,0.1971483376173522
50,2,preprocessed,FTT10h,11.931822846985481,4.783291170019924,650.4992402263575,4.801070962407449,0.05667921960884953,0.8596401244608279
50,2,preprocessed,TPP8h,9.67080948868404,4.232855469603896,496.37773722485076,4.907974849244297,0.06549413035564017,0.9549517885301217
50,2,preprocessed,TP8,10.87799629624847,5.405438459254593,243.76337266321502,6.526613500840151,0.05061561140388047,0.8769626496448392
50,2,preprocessed,TPP10h,12.506526210834457,4.563997605663997,517.055012241965,4.9410976004850715,0.0588516146744093,0.37583175541149877
50,2,preprocessed,F9,21.89445601656715,5.251596121013568,1005.2409247674037,2.8248906451502838,0.0561838657889554,0.09883129098240395
50,2,preprocessed,F10,39.81396395349937,5.487710680210747,2001.1297502873447,2.8627073984017875,0.05445907959679393,0.0288984331666846
50,2,preprocessed,AF7,28.749095131203607,7.469807405914108,883.7598213142802,5.9436960450875365,0.037438006171034335,0.09523366434613123
50,2,preprocessed,AF3,17.06864272193042,4.650959006013552,491.20953250903426,3.244741240913526,0.06045107038201925,0.06073811527752137
50,2,preprocessed,AF4,19.435659334846935,5.666300071703081,506.10743688713177,4.673007295279406,0.04918326300900589,0.11597933920813552
50,2,preprocessed,AF8,46.00438003722068,7.377826930773851,2381.6272235025967,5.181374474056709,0.040260926132599656,0.03139511814713478
50,2,preprocessed,PO3,8.369735279879013,3.3516510391171024,249.13699151304093,1.913177931180592,0.08243761824334406,0.0552647374440587
50,2,preprocessed,PO4,7.746240716237893,2.9077583213695615,237.59181135022223,1.6120919896366512,0.09457080277159415,0.05755368043441794
51,1,preprocessed,Fp1,30.27595633352398,7.0215872214830215,1173.0578904488796,3.8299428467676138,0.04304351632956834,0.039771964532089275
51,1,preprocessed,Fp2,56.568133952921265,7.3767900947825185,2513.3659645508887,3.9043919552750137,0.041409100195546215,0.023226008985906637
51,1,preprocessed,F7,13.757141160373216,4.572386613324102,338.9146205616442,3.3343373878320444,0.06291334675889443,0.42861648105888406
51,1,preprocessed,F3,8.898574593935153,4.020864457336553,182.5724007445686,2.6193415968826823,0.06939263929019643,0.14253333799177445
51,1,preprocessed,Fz,7.911835153846148,3.8932448145090586,192.28246149385313,2.2523771298214053,0.07165747307591279,0.08932501141342143
51,1,preprocessed,F4,9.642550151497796,4.009950110600883,210.50747560790614,2.493856840248164,0.07123719464144997,0.11504952582855209
51,1,preprocessed,F8,13.718556769702623,5.020320053199878,240.5961038265035,2.4698789749167886,0.05789335434725506,0.07270469955767417
51,1,preprocessed,FC5,8.489223145906093,3.709399154194924,177.88058726871103,3.0406513403391475,0.07600618743250737,0.2868929547918252
51,1,preprocessed,FC1,6.180087368074589,3.1475634350176307,160.1324838563765,2.0781886154959777,0.08667075270700172,0.13953948012482892
51,1,preprocessed,FC2,6.275290119973392,3.1573628194410905,175.84298924467785,1.981382819284853,0.08486705775909874,0.11696780182787324
51,1,preprocessed,FC6,8.513603945654078,3.558722424928814,195.2560874929781,2.482892856397364,0.07768146396988004,0.18363625986161222
51,1,preprocessed,T7,8.69228283044869,4.239781193320225,181.91379552508147,3.754498451510866,0.06623471383124653,0.3259028224103897
51,1,preprocessed,C3,6.241738959155917,3.0401684987994977,157.68534354389936,2.4939001275156727,0.09123544348130637,0.26579785296607567
51,1,preprocessed,Cz,5.544785293145465,2.786615049249366,164.76735818630047,1.6723877722076066,0.09688585354464,0.10834437037680932
51,1,preprocessed,C4,6.005591081634473,2.8054179112827207,183.30375218018895,1.7565350012861956,0.09739952718676123,0.15382951153754795
51,1,preprocessed,T8,7.9586203341303685,3.6514666561603724,166.6610843733771,2.4639453058632275,0.07549835099086478,0.17549991894876607
51,1,preprocessed,TP9,190.3922920700428,5.055081102736813,8856.36756606834,3.469940527529432,0.055756938972068994,0.009341134519025083
51,1,preprocessed,CP5,15.306915228160639,3.103804937010761,763.3149673714493,2.2266251253505485,0.08888305168841024,0.055061107187152014
51,1,preprocessed,CP1,5.29429624715854,2.471012710426783,162.63822140950626,1.517385870233238,0.11087178589148644,0.09847600807727278
51,1,preprocessed,CP2,5.209130447686913,2.457483781580996,166.84734295350944,1.4265556766962444,0.11024720544027085,0.08939825702959643
51,1,preprocessed,CP6,6.202229092163893,2.837457830010684,167.92853003073301,2.1460832881092755,0.09653562151592096,0.2070147008302184
51,1,preprocessed,TP10,8.080031009939239,3.925710575108482,210.15304680938362,2.9397380099127317,0.07047252137874675,0.18948298150310222
51,1,preprocessed,P7,7.972660434911531,3.755715485759545,170.17004750192754,2.5027974466628926,0.07398651606689431,0.0894313231764521
51,1,preprocessed,P3,6.153175548554668,2.9359026803418207,160.48418818626777,1.7955271529923575,0.09397309050579342,0.07610592972273324
51,1,preprocessed,Pz,5.504178813574347,2.553704620689629,164.74671120861194,1.4382277314194245,0.1063771415229256,0.0665387555219799
51,1,preprocessed,P4,5.968465194064342,2.8295471688688054,170.07066180311327,1.7400967438423083,0.09622041269007384,0.08484319427691371
51,1,preprocessed,P8,7.320060083722171,3.5972004238842716,176.19599569642546,2.3998379551495552,0.07588944342293436,0.1187791717486539
51,1,preprocessed,PO9,9.9991518184964,4.633992029711698,192.35139990613405,3.4022960917928464,0.05885649242623238,0.10577969906837213
51,1,preprocessed,O1,8.60193003598587,4.314397940653713,179.05130249383427,2.759697060322905,0.06358462481393923,0.07336955645231497
51,1,preprocessed,Oz,7.922323776244911,3.8087160019187345,176.16778737801928,2.5725565516426374,0.07257975075153957,0.09149772841267954
51,1,preprocessed,O2,7.948156853001398,3.911853888369911,171.89596823220324,2.9546636390343037,0.07007559174619853,0.13148007485409977
51,1,preprocessed,PO10,8.384003336747595,3.9183309628204506,170.1674456118981,2.8193571037547867,0.07057175378688381,0.11141297524082903
51,1,preprocessed,FC3,6.775167345867255,3.1776234373382595,170.07802718167858,2.675615132823027,0.08727198435630272,0.28887996278895656
51,1,preprocessed,FC4,6.544083154922389,2.9034642082329256,184.1969442571494,1.9387008087705324,0.09463853136035957,0.1562426902198459
51,1,preprocessed,C5,7.009972634512204,3.121193906167824,165.42618763484114,2.4053818642020786,0.08857368006304177,0.19956089494374005
51,1,preprocessed,C1,5.2984212099820365,2.496115001562006,159.99629120152457,1.682094043745295,0.11001955462160348,0.1282283598805753
51,1,preprocessed,C2,5.33755984144361,2.5441829485083387,161.10894624753965,1.5557336823158572,0.10673904795260193,0.10776686927614411
51,1,preprocessed,C6,6.690122533517261,2.8380936259557337,166.72421879784932,1.8004666150132274,0.0976155036044713,0.11979562995442582
51,1,preprocessed,CP3,5.8933454545130575,2.835282830403763,158.62875788101385,1.894666155050146,0.09619706388815924,0.12176332511474773
51,1,preprocessed,CPz,5.09679527311603,2.323806139780565,163.61250881800373,1.3778591591044342,0.11725184601465137,0.08497339279643086
51,1,preprocessed,CP4,5.516038749230362,2.537426459094303,169.78657618897955,1.6667543348673488,0.10891632373113855,0.11573756700371698
51,1,preprocessed,P1,5.707778549759922,2.7420841927015593,162.74614074029125,1.5497550410002434,0.0997227329772641,0.07271133778017314
51,1,preprocessed,P2,5.413785310544993,2.4966750115595353,172.35062420880877,1.470223458328736,0.10874120771677903,0.07419878510541317
51,1,preprocessed,POz,6.761650437321675,3.387237130933086,169.35804341689513,1.931737740500936,0.08102617984414674,0.06182654053021346
51,1,preprocessed,FT9,11.631907424233539,4.497701214006811,197.32111725255646,2.414908754854483,0.06441934448238625,0.08090722258979936
51,1,preprocessed,FTT9h,9.757129393448967,3.89479564387576,190.76172061338588,2.3936400071610153,0.07149986866298923,0.11304575968954557
51,1,preprocessed,TTP7h,7.430817067843391,3.488665679973979,166.92031029339745,2.6185239254017927,0.07851618363832706,0.18933206906376435
51,1,preprocessed,TP7,8.14451591738178,4.0253939693909135,168.64144465747262,3.2708703834947754,0.06881475644281003,0.2302882020112826
51,1,preprocessed,TPP9h,8.974198184629532,4.176892686681905,170.69834426559913,2.800707935763911,0.06562764498146689,0.10234945287498914
51,1,preprocessed,FT10,12.057921262073044,5.038099214271382,213.38449468514,2.4413916691337105,0.05569856696728249,0.07685373554064892
51,1,preprocessed,FTT10h,9.622632820559597,4.554338062371018,220.14782869027022,2.431316532366943,0.06094621019758924,0.11523598160068725
51,1,preprocessed,TPP8h,6.681616710517719,2.9623011243124133,167.70808287760676,2.178546642489913,0.09319674284213292,0.17157935162146065
51,1,preprocessed,TP8,8.94342948135262,4.547275773183314,171.53273278339142,4.994086383248884,0.05948107287744798,0.7336822770950262
51,1,preprocessed,TPP10h,7.713239042422186,3.88927466703919,171.5185030110302,2.582466924840153,0.0703732889706097,0.13539853884855665
51,1,preprocessed,F9,16.623546859790263,5.103125922501418,310.6123470194385,2.3491584007651163,0.05743221550944167,0.04541990903846458
51,1,preprocessed,F10,17.556831742996312,5.76634950701605,360.7113389722406,2.409244015146583,0.05008901730729942,0.04334873730003019
51,1,preprocessed,AF7,17.232843084790254,5.537792060866283,361.6889976822016,2.7725841580184634,0.05423342964714123,0.048889039837607735
51,1,preprocessed,AF3,13.125432006575068,5.034868196009634,248.1425189437752,2.905647690307597,0.056953565070192336,0.08272709502342378
51,1,preprocessed,AF4,14.372888226662171,5.094705623458693,300.34494863302746,2.684351885664781,0.05580947377637685,0.05752875846901009
51,1,preprocessed,AF8,23.330052871436937,6.269277084213934,900.5190685159854,2.8072350497528564,0.048664740390508714,0.034201142910968645
51,1,preprocessed,PO3,7.449923811434174,3.8074657981851545,170.73689986473056,2.189756146748181,0.07197851910223857,0.058987317059577556
51,1,preprocessed,PO4,6.755192070710567,3.3261434366769405,170.51228151907793,2.0531517317269037,0.0816332486939264,0.07252761047587428
51,2,preprocessed,Fp1,46.224045527855864,10.819677149018439,2577.576713083583,6.182966540695291,0.027284836249171242,0.11990939851988275
51,2,preprocessed,Fp2,54.633397712034444,13.46358375882006,3263.954874562121,9.17242593985419,0.02242875659274037,0.13945893137866544
51,2,preprocessed,F7,16.958301830919076,6.542380516414713,569.7206598800285,3.372391510022048,0.04380625854891022,0.15693350736131834
51,2,preprocessed,F3,13.828970574634525,6.283041137292202,406.5851151119529,4.422411547334883,0.04457678041321475,0.3529106134906337
51,2,preprocessed,Fz,11.243660246788647,5.573309119828504,248.90921821516753,2.992081428094254,0.049964460425638665,0.09697304717169004
51,2,preprocessed,F4,12.250652216617954,6.18290962541428,308.5988739609069,5.553146752389954,0.04415269473596187,0.5368215315563043
51,2,preprocessed,F8,15.76507634152256,7.239657357950979,268.3166665856206,6.021264860305908,0.04025827415048471,0.5539728907291759
51,2,preprocessed,FC5,10.714702112209418,4.761371522603028,741.5551716437949,3.8715478087180117,0.05894790913815039,0.3705256377085364
51,2,preprocessed,FC1,8.391106312747773,4.131119464808491,375.2347604429697,2.645735810185306,0.06573925301190427,0.16572824208302953
51,2,preprocessed,FC2,8.343857391175797,4.297692393206637,225.88637782836582,2.802739005230509,0.06447894205556119,0.15995867199456398
51,2,preprocessed,FC6,12.48848327840365,5.169073347523496,325.2029884467976,4.656610250593486,0.0546532950262515,0.4036387849076863
51,2,preprocessed,T7,9.803809692919533,4.457506575407525,858.4365199420592,3.2803092873356365,0.06250186657428368,0.25069352137855594
51,2,preprocessed,C3,7.877616933390276,3.481181322443255,821.9164067943173,2.5119572346969927,0.07905912710026938,0.28585782506114205
51,2,preprocessed,Cz,7.451956511853441,3.693518876466602,212.7956604386921,2.1677257275641173,0.07377896176658563,0.138742142245828
51,2,preprocessed,C4,7.309491458955908,3.2549642890916446,217.27133889948288,2.1225477782247557,0.08480518937516053,0.20948812892504312
51,2,preprocessed,T8,12.333759947462966,5.721510480049458,371.3149618662368,6.330047288668165,0.04918796552362635,0.8615115271300843
51,2,preprocessed,TP9,15.515642509630075,6.394014172743591,483.4387302621908,3.2811325922378987,0.043406065022488484,0.11824568640150378
51,2,preprocessed,CP5,8.885225431411888,3.8161446933765513,633.7775455773617,2.416654321337184,0.07412539795363728,0.21805175920917277
51,2,preprocessed,CP1,7.055410667753438,3.2078111859190575,308.6096724718767,1.7260742940475098,0.08727802698618436,0.11831549676970983
51,2,preprocessed,CP2,7.420148429859856,3.1756930046042626,205.43754328249324,1.6611656219535296,0.08798284543570324,0.09839639940230782
51,2,preprocessed,CP6,8.025043759206376,3.626372611473479,209.26090300374216,2.9037052956737317,0.07825276700971813,0.2810680539830518
51,2,preprocessed,TP10,11.131530465290089,4.909619998158448,233.50867189982367,3.015583943856527,0.057836924124502,0.1428952210181475
51,2,preprocessed,P7,11.897111506727208,5.514561938297529,412.59360007282214,4.044464273669766,0.05021532800936572,0.241780945131747
51,2,preprocessed,P3,8.478255732221196,4.008367328101603,326.7100445332445,2.1211020590244094,0.06835544352791499,0.10717225302220856
51,2,preprocessed,Pz,7.347456288625076,3.488916126821933,201.7873276062124,1.6844064879646576,0.07939959024961325,0.08347911556652993
51,2,preprocessed,P4,7.344220548320301,3.298426430631161,206.5089265474643,1.789918547233237,0.08462002520621913,0.09743457322829302
51,2,preprocessed,P8,9.254412271701879,4.53874416183394,181.1395430871106,3.272056311024095,0.06213751127410867,0.23441643035884785
51,2,preprocessed,PO9,22.003329332033168,6.938341578907799,1077.972707850356,3.8297901049535716,0.04040760009317939,0.12510841455720806
51,2,preprocessed,O1,15.563343566419807,5.628102672322152,746.912781978961,3.3773899305959376,0.04983902663377514,0.1385017115158094
51,2,preprocessed,Oz,23.775541466496215,5.220753140746809,1263.4040101988307,2.954242901826946,0.05281359941225309,0.12586959025745798
51,2,preprocessed,O2,10.4855847119387,4.900679598386696,212.61225323913678,2.755362094070553,0.05813557600989135,0.12111723466425704
51,2,preprocessed,PO10,10.791401292972637,4.878799332539135,205.9290708446241,2.8008504571674706,0.05840436270674177,0.11254336193725571
51,2,preprocessed,FC3,9.664011882390406,4.19209051998555,882.3082082621295,3.366751532958179,0.06757297558819489,0.35271031456202656
51,2,preprocessed,FC4,9.053209919632437,4.321589312499227,262.9114857542063,3.394146857881002,0.0633261457779583,0.36735385248002295
51,2,preprocessed,C5,8.987668592859277,4.161713677782861,705.7508104935627,3.868364133017093,0.0669696987797084,0.39248646594359204
51,2,preprocessed,C1,7.503095963634458,3.550709317882723,377.49880069309984,2.0596213056257295,0.07677145365818694,0.15077908702382384
51,2,preprocessed,C2,7.048483596964585,3.314509864820422,215.36573412935294,1.979819664577858,0.0824219473297535,0.13649999577282537
51,2,preprocessed,C6,8.464981350174911,3.805205469349195,206.21719563372403,2.9695628467280915,0.07418512833071515,0.27006620134548914
51,2,preprocessed,CP3,7.811913785527702,3.42557614055517,543.769819877726,2.017203816566599,0.08049265615013827,0.16553406574316634
51,2,preprocessed,CPz,6.858275829837249,3.197389065368433,205.84582183083316,1.673878654680208,0.08650153208417205,0.10393603795788077
51,2,preprocessed,CP4,6.922257069454302,3.047178993122075,207.41670127960663,1.7580376842227279,0.09058708987629839,0.12188412803955058
51,2,preprocessed,P1,246.09406522180956,5.118969899156464,10750.862657409445,7.357259477229116,0.05905542381689056,0.048501119490058975
51,2,preprocessed,P2,7.457899732326989,3.333549251665765,209.16726693556262,1.642438032306751,0.08402272143544043,0.08254417893931577
51,2,preprocessed,POz,8.345082761716343,4.072941725417408,197.3129212016928,2.0648105838028803,0.06811652201960351,0.0837586542148262
51,2,preprocessed,FT9,12.990547407305277,5.3431075138781985,758.0315884838333,2.6830663648285102,0.05316003559930474,0.12267613317149466
51,2,preprocessed,FTT9h,11.043341764291396,4.801920333124272,841.1128476965525,2.7516347651805475,0.05890609787419588,0.1963036386717405
51,2,preprocessed,TTP7h,9.218143774888269,4.370080785741006,679.1382082555208,3.7670602645703655,0.06359493247480871,0.32566035191814957
51,2,preprocessed,TP7,10.012994555786888,5.106984607430065,395.7754699061097,4.768489181206466,0.05453383427209576,0.41841876922608684
51,2,preprocessed,TPP9h,10.833854847578264,5.450137168568653,269.11973430531424,3.58160556489948,0.05093806557200796,0.17096699204866023
51,2,preprocessed,FT10,13.198561588639805,5.528985665047779,204.0479373530576,3.1878678467981816,0.053148089523889164,0.15195897552179094
51,2,preprocessed,FTT10h,10.713703288039856,4.730458459022713,209.1102116379228,3.1971247408215957,0.061402827636050865,0.22400854601466283
51,2,preprocessed,TPP8h,8.301484089346289,3.6252363384803976,212.45158046887312,2.4721075638961136,0.07796008816203656,0.17945532938198244
51,2,preprocessed,TP8,14.326638249156234,7.805824371056326,249.41960115615,11.093008196990723,0.03685961569475388,2.0601913676060946
51,2,preprocessed,TPP10h,9.635056854570514,4.486600228399022,218.33590326423692,3.0370312378537614,0.06328433451400378,0.17828717473238695
51,2,preprocessed,F9,16.14609062146852,6.090655812460061,668.3833723472737,2.634119556084774,0.048972936166146015,0.11106416031759904
51,2,preprocessed,F10,18.143245949703314,6.339134189223522,279.15391169973157,2.6273900082800488,0.04720491700464105,0.0658982110422899
51,2,preprocessed,AF7,28.227524188478487,9.78993161613274,500.53236171860226,3.9625251977975418,0.031179256834648398,0.13426353069898636
51,2,preprocessed,AF3,23.10985156874931,9.60245127160043,366.28072754713344,4.621321050607231,0.030086190934123368,0.23051824046844938
51,2,preprocessed,AF4,17.301354360480964,7.192800702543453,279.83734868424546,3.9131201849949337,0.040043244793004376,0.1316558530321697
51,2,preprocessed,AF8,36.40835760073573,10.884309504875898,1847.7840899601047,6.186362595898728,0.027398323965619194,0.18912080687305366
51,2,preprocessed,PO3,8.96243601237197,4.578918251773917,202.4996981716833,2.3905299302258474,0.06112209486378487,0.08812216565657285
51,2,preprocessed,PO4,8.319653344795016,4.0023737349626325,199.33513096542572,2.15202570446982,0.06979494561549167,0.08924949124104976
53,1,preprocessed,Fp1,56.1834895781515,12.089351781261822,804.405901976651,3.981587539541887,0.027776234653630355,0.009964310501755754
53,1,preprocessed,Fp2,14.997140521181736,6.868205149205985,257.854817504708,3.618962548437501,0.04187141118422714,0.09605157691562884
53,1,preprocessed,F7,20.281103930955243,7.054316562833758,479.2477398697273,3.030250797550663,0.04109872683840797,0.0714439342547787
53,1,preprocessed,F3,15.334246230022968,6.612544968948376,227.27872543451838,2.756530231589849,0.04403290726272783,0.051034603620978274
53,1,preprocessed,Fz,15.37685470120292,6.7829362601593655,218.50378208444548,2.6395184770522784,0.04210372151042114,0.024591999194074187
53,1,preprocessed,F4,17.929683784644986,7.093198281103377,341.66261933780777,3.384723896468326,0.040856316063249014,0.06802903645220443
53,1,preprocessed,F8,24.886229297296143,7.5080474230511545,792.9774915373608,3.268716025772809,0.03954325769780467,0.051778907238639746
53,1,preprocessed,FC5,11.526004264094492,5.132656256608202,318.2171931321826,3.0023914776725866,0.05387074455459545,0.15834418014153434
53,1,preprocessed,FC1,8.690566775668831,5.030369420432416,183.33427840038865,2.4890789191988842,0.055001994838670576,0.05579396494666505
53,1,preprocessed,FC2,9.587480975973449,5.577039604404512,234.93475982174724,2.706202782789266,0.04924473892864538,0.05238150988493078
53,1,preprocessed,FC6,13.072423326635217,5.499590793184964,459.7643863688527,3.5517643838807675,0.05066890223270425,0.1434666846063759
53,1,preprocessed,T7,14.224048912967195,7.9536125581136705,461.85651793720655,8.309737505257658,0.03400821166500851,0.53805872525065
53,1,preprocessed,C3,7.262243487725236,3.9343074558319944,339.77166552413547,2.3837199085211234,0.06951634000131306,0.1479927185664417
53,1,preprocessed,Cz,7.744023907821778,4.870148489417916,147.7541749839899,2.4637790322903093,0.055759528511042315,0.050346199749115125
53,1,preprocessed,C4,7.864877557835389,4.09437493502109,548.8186919373561,2.7469367841540637,0.06699122776007393,0.23298891442269296
53,1,preprocessed,T8,15.448969270988588,8.609648568045356,679.3627337309844,9.839268087052735,0.03173056042341082,0.8070727470691627
53,1,preprocessed,TP9,14.77576587006139,7.165019224625204,247.2410803133734,3.8365210987934923,0.040017978799157625,0.08701847072999566
53,1,preprocessed,CP5,9.387830545876763,4.7244605763397125,271.3845147689945,2.642369735066501,0.059779507199095,0.09055875426601964
53,1,preprocessed,CP1,6.994583281489923,4.171973378064918,138.75527433007605,2.1372777800270977,0.06537010570119842,0.06093567924060377
53,1,preprocessed,CP2,6.681034962641122,4.030809633964508,216.34549982040048,2.1853818822517677,0.06740534616763715,0.08354591360786459
53,1,preprocessed,CP6,8.720790133604766,4.661212954013502,317.70019057627144,2.7955045116414077,0.05951689552600613,0.15698245650440135
53,1,preprocessed,TP10,14.862750875547592,7.183337325627253,248.48117101771413,3.6451835831165633,0.03879582447439789,0.093966546172293
53,1,preprocessed,P7,13.688448926570608,6.970234298936863,179.73791946065938,3.5440545619318478,0.04063915641050245,0.03803987725099242
53,1,preprocessed,P3,10.021603290802044,5.253744499472338,139.6257184444259,2.662831566961127,0.053406123902207454,0.04036964297359653
53,1,preprocessed,Pz,8.289517245755622,4.646060460572996,129.84066902905803,2.180766554709831,0.060042118872183865,0.04709973667613179
53,1,preprocessed,P4,9.643286419871837,5.132406438009793,232.96737467199753,2.5859483732786255,0.054330314982500974,0.06165688561338749
53,1,preprocessed,P8,14.37115430450578,7.157108912965829,311.2840558592586,3.2495353096960886,0.039124089065758975,0.03968097497936017
53,1,preprocessed,PO9,15.845025209627806,7.638952964883061,230.19913601844473,4.307031485823265,0.03731610870103176,0.08671789048880735
53,1,preprocessed,O1,14.914760122920418,7.397104596149452,229.08893363941522,3.8641537734449045,0.038477660332001756,0.055448978589280176
53,1,preprocessed,Oz,14.253975961524748,7.124708474661279,195.516625157874,3.7031599622554743,0.038755422678538064,0.06535144212766329
53,1,preprocessed,O2,15.724960307883066,7.974677294220933,232.4345296991308,4.125268789191655,0.03580609158077076,0.04213093571949905
53,1,preprocessed,PO10,15.372954548278916,7.525475481914247,270.234730063834,3.517176960409394,0.037164601966557416,0.045129362185860444
53,1,preprocessed,FC3,9.419155441888094,4.918214819964982,354.6030766417166,2.5921254439223174,0.055754478286559835,0.13282815513430601
53,1,preprocessed,FC4,10.946527214933127,5.5999687531036395,486.9767494538926,3.0485737218478195,0.05008307619273677,0.12290688257671756
53,1,preprocessed,C5,9.119953305082584,4.630378392568294,321.3467202261347,3.417264153281536,0.06037038346354495,0.23022871546730656
53,1,preprocessed,C1,6.659615351776934,4.074548973645301,169.5390399109854,2.244084173646503,0.06741039639211963,0.06381496217462206
53,1,preprocessed,C2,7.427763723824499,4.538416498344455,228.18791624574501,2.3895936392145942,0.06104206331971456,0.06734129888013153
53,1,preprocessed,C6,10.179103552030552,5.037248191177386,394.3047776352394,4.58970572514924,0.055001994838670576,0.42119510110582065
53,1,preprocessed,CP3,7.912534058534631,4.486757933536159,201.87109765775304,2.309298935714141,0.0625874320113529,0.084350769624799
53,1,preprocessed,CPz,6.937328364560671,4.20699713808419,142.870655884494,2.1621270046816945,0.06506204200776725,0.055713032903708035
53,1,preprocessed,CP4,7.715730918762119,4.432489288801678,378.2678309423542,2.4323493492258783,0.0613349763396983,0.15706487660478327
53,1,preprocessed,P1,8.559704210236893,4.744325643166372,120.14914402568259,2.2844093272978556,0.058865416567766435,0.04622576816335174
53,1,preprocessed,P2,8.695434679200057,4.822454706292582,177.92069436060308,2.355567538799341,0.057527107079909705,0.05567793102651041
53,1,preprocessed,POz,11.86567006864172,6.349214129876805,156.30527710838246,2.9615634541845295,0.04387130007928852,0.03565386947258692
53,1,preprocessed,FT9,18.271421902586358,6.145463726635191,962.1718036555824,3.6286861398122623,0.04655801950396695,0.07681160641970611
53,1,preprocessed,FTT9h,16.99782241238365,6.16432953984797,816.368356411449,3.7996278618372323,0.046234805137088344,0.0935837821212395
53,1,preprocessed,TTP7h,9.995717521934113,5.0403965407872775,259.71648566240617,3.347243834559043,0.05603729085757862,0.14995674319049623
53,1,preprocessed,TP7,11.694338548772972,5.789121239182293,185.15772350614137,2.9345194655037417,0.04879526894970482,0.05757994986440119
53,1,preprocessed,TPP9h,13.95827521921061,7.081686628791386,187.89980225591617,3.6065802849053505,0.040093732166394794,0.05504388223902184
53,1,preprocessed,FT10,17.99269288986734,6.871095634496612,303.6379756790666,3.056997363868684,0.04212392240835105,0.05453782881426828
53,1,preprocessed,FTT10h,14.059364386266285,6.174057618435623,340.1863539364192,3.6011543605400194,0.045507572811611476,0.12013225016331854
53,1,preprocessed,TPP8h,11.23263200489784,6.037076278989584,616.2402183519057,5.8753678396580264,0.04467933599648504,0.4880755418352942
53,1,preprocessed,TP8,11.82958419637839,6.174601242929015,470.91319506928147,3.5453501929291455,0.045229810465075175,0.14903254496960014
53,1,preprocessed,TPP10h,13.561572473916046,7.115637558653884,198.5407517526731,3.5569952683051262,0.03943720298367263,0.07194579985645623
53,1,preprocessed,F9,24.49728094781397,7.113977101068588,516.6746577415823,3.1638333021405947,0.041280534919777186,0.03465485557626463
53,1,preprocessed,F10,31.08092608430816,7.849928805512071,732.2746518886283,3.426142589366372,0.03750801723136593,0.02773390981140542
53,1,preprocessed,AF7,37.99091686811614,10.55515655215631,497.1746264690137,3.4767791818912746,0.030740716424845084,0.016630094596326136
53,1,preprocessed,AF3,27.722075635852033,8.630718858616252,381.1935096894126,2.896202376121723,0.03482634803116998,0.01596375024322121
53,1,preprocessed,AF4,28.59694563853958,8.539647514018208,432.6521835696126,3.4063038257458844,0.03578084045835837,0.0244219183222383
53,1,preprocessed,AF8,51.1568260494505,11.52462486657651,1204.4406960930073,4.506160855070559,0.02798329385741196,0.019692837467447
53,1,preprocessed,PO3,13.052338372633743,6.713529370261074,152.80820902879083,3.367084421355977,0.04195221477594679,0.03201281472617791
53,1,preprocessed,PO4,15.339592752312393,7.918739952908604,189.319763122019,4.239136825177292,0.03566468529526137,0.03301262048668422
53,2,preprocessed,Fp1,48.0503298705995,12.359051326894585,685.5891099538171,5.642338270303041,0.026603609540528417,0.03165791452670339
53,2,preprocessed,Fp2,57.33556919110946,14.155064667630143,1029.1193329599791,7.389439063639606,0.022887743178810146,0.04730303010584044
53,2,preprocessed,F7,18.052949306492486,6.37076691231496,1442.3473501724472,3.2439473596778075,0.04456824512534819,0.3131813550056331
53,2,preprocessed,F3,14.052277019754332,6.435333603149082,830.6615878790826,3.445831629643373,0.044839597512418526,0.20259748940506409
53,2,preprocessed,Fz,13.288057413347298,6.792017531612744,365.84102118837114,2.9751416104707644,0.04186025905846259,0.055350153992193014
53,2,preprocessed,F4,16.251799071722445,7.012835440909214,809.7268753657877,4.170246335107955,0.04088006778271873,0.2167787547620915
53,2,preprocessed,F8,39.38024313272699,7.744876766744431,2254.743987428503,3.5164713226766215,0.03844897190672123,0.10902644845959969
53,2,preprocessed,FC5,10.91330391779466,4.642745825534921,706.7396306629919,2.947175815624228,0.060251305537250034,0.448886795757071
53,2,preprocessed,FC1,8.937968238353974,5.017217832383032,493.12458999333796,2.7905356686825775,0.0535173360948515,0.12029759751772794
53,2,preprocessed,FC2,9.781343003454094,5.545325550021096,521.0199999269095,2.9803651488551246,0.049380596642983325,0.1371264414960409
53,2,preprocessed,FC6,11.625540224015278,4.959580497247767,641.4500460427065,3.322050505918769,0.05732734512147172,0.2407914174706521
53,2,preprocessed,T7,16.315325511306312,7.4847231588865935,1316.7952208081147,7.64770286945964,0.035513935883307396,0.6703391960003592
53,2,preprocessed,C3,10.692931147151512,4.51569915336613,863.8892006787967,2.548188309134432,0.06226706612691539,0.3564399719971448
53,2,preprocessed,Cz,8.004051014723217,4.7724274425152435,300.9354480880842,2.603876521985794,0.05746025241309801,0.07725597260815989
53,2,preprocessed,C4,10.343615507673654,4.182611055842336,1090.2298703862539,2.8105292489778075,0.06537377406867985,0.5415353001952602
53,2,preprocessed,T8,15.68727986647475,6.586039136884929,1243.0941082841125,6.403222879267241,0.04164428470956988,0.4999473512060919
53,2,preprocessed,TP9,18.119339181472156,7.515125276095606,709.1098966413763,4.022578341163737,0.03781766227149637,0.1354006366008782
53,2,preprocessed,CP5,10.792804904190511,4.998361012927213,784.9753210174174,2.7980739000604955,0.05461382125076837,0.30601679812175475
53,2,preprocessed,CP1,8.33374404033145,4.736320149539769,337.6044527508709,2.334864492642081,0.05782020966125254,0.09198034269752142
53,2,preprocessed,CP2,7.966698164098924,4.462283793110124,375.54327326402705,2.3092910970176215,0.06066110301976442,0.13753432802159674
53,2,preprocessed,CP6,9.027837519807015,4.552243163132315,636.0818662724062,2.723173517236147,0.06128133704735376,0.24840014402010194
53,2,preprocessed,TP10,27.910385235917236,7.587053733015346,1600.2724089645653,3.6977475589115727,0.037668141568416795,0.11448723175793571
53,2,preprocessed,P7,14.689960147144923,7.469644577466905,299.28527010549567,3.839322104764556,0.037573998903514844,0.04308017074535986
53,2,preprocessed,P3,11.169367466950954,6.007365256420947,296.3644746972125,3.120827765181726,0.04653970328447144,0.05437153834058217
53,2,preprocessed,Pz,9.022914983809612,5.048598264926316,198.77627922031914,2.439196373076922,0.05449752737059537,0.056331643936900454
53,2,preprocessed,P4,10.78575023508137,5.762423111172922,344.8147506071853,3.0244725772038525,0.04808475054962703,0.07388484256905106
53,2,preprocessed,P8,14.05869049639239,7.1800399377395125,375.61598301121273,3.4195447933099663,0.03767367937223456,0.04570935063813559
53,2,preprocessed,PO9,16.852053948445803,8.006991682695613,376.0301546784042,4.7325049508553105,0.03503214695116211,0.10020455804771604
53,2,preprocessed,O1,14.627277329870232,7.645742124393477,240.23568153689047,4.41660988879683,0.03631137963306512,0.06835145864554647
53,2,preprocessed,Oz,14.37999506211366,7.538486199710954,221.89379883628715,4.163618887631757,0.03720296604772479,0.07086361966751274
53,2,preprocessed,O2,15.846476135762678,8.25455526100238,320.34655673049843,4.54997423140719,0.034539282411381295,0.04949949166361979
53,2,preprocessed,PO10,31.892441171356502,7.80812408513185,2226.614567984057,3.8254566146756575,0.03568560780165802,0.03399865175805269
53,2,preprocessed,FC3,10.221586477617258,4.775874246842025,1017.8551345396082,2.79818686067902,0.05719443782984544,0.3952345221786281
53,2,preprocessed,FC4,18.842803415460935,6.405481282664463,1198.6914482624393,3.3283241299744812,0.04496142919640929,0.34760551001884243
53,2,preprocessed,C5,10.014718732693453,4.478892448866355,894.7984182587663,2.86032015004183,0.06235013318418182,0.507443590075961
53,2,preprocessed,C1,8.24277832909613,4.599179803381246,443.6260546661473,2.519370295260939,0.05943724837603903,0.12107198052212959
53,2,preprocessed,C2,7.93091925987935,4.365096331421317,480.5989006139754,2.5472731859326565,0.06283745992014488,0.16186742246365762
53,2,preprocessed,C6,10.4474586271951,4.755566585484419,695.6338109069934,4.012714954914827,0.057864512091794634,0.4454079954123687
53,2,preprocessed,CP3,9.399805116817321,4.91923381477828,565.4914273782656,2.554766917338945,0.056291775807550244,0.18249748472054486
53,2,preprocessed,CPz,8.068945564914957,4.805343959317922,261.0130287510234,2.7697536201991046,0.056059188047204236,0.10302812733585862
53,2,preprocessed,CP4,9.18229756690214,4.204435461675283,708.7316956293438,2.576969892385937,0.06591647884282051,0.3674099779308067
53,2,preprocessed,P1,9.332991091053918,5.196773486988235,240.32821988899136,2.6518612527504004,0.05398251161554351,0.06656946867206567
53,2,preprocessed,P2,9.387456370458954,5.203372547402435,257.9884188640471,2.565779577318798,0.05345088244903836,0.07043962601390145
53,2,preprocessed,POz,13.04858300070761,6.932377446547922,229.956865074651,3.3059252712786504,0.03969497776571767,0.03645660424191221
53,2,preprocessed,FT9,15.214658547179576,6.193002484613828,882.1197453951345,2.950724021348105,0.04652308987301816,0.19139571055451798
53,2,preprocessed,FTT9h,15.694431960416349,6.726272514740675,1246.937651307807,5.720551499367329,0.041472612791219256,0.4828968724977596
53,2,preprocessed,TTP7h,10.596283984574251,5.238321008016449,446.70703197001876,3.3545038429603298,0.053810839697192886,0.2151579830193878
53,2,preprocessed,TP7,12.144155529031703,6.06055073740372,383.7868350256265,3.1605832624060195,0.04632372893557873,0.11864760997696039
53,2,preprocessed,TPP9h,14.912674185916803,7.389635634907933,403.98263710556023,3.8105496908524867,0.037922880544033845,0.07262568422772721
53,2,preprocessed,FT10,16.535904716327686,6.492875956345133,621.9949762017968,3.016818961899299,0.04301212225255708,0.11897169235289552
53,2,preprocessed,FTT10h,14.628513441547435,5.97529838841051,991.8111062139432,3.9517577464434672,0.046711375202822064,0.30014169933189916
53,2,preprocessed,TPP8h,12.525261389235927,5.428165009702693,924.9687155857465,4.470108581511732,0.050272183057643,0.3648258814207873
53,2,preprocessed,TP8,13.340415098744566,5.982332889440221,797.338383807356,3.3643935970571355,0.046993803197527925,0.19016257792548952
53,2,preprocessed,TPP10h,13.94782391242398,7.156303259027436,412.93470126784445,3.430094394101255,0.038089014658566706,0.0484762710430451
53,2,preprocessed,F9,18.710206901267725,6.559617039407865,763.8672570223996,2.97646793407021,0.04315056734800113,0.10749610663176513
53,2,preprocessed,F10,35.3768611854234,7.365095498117507,2098.0343180702494,3.261624555251108,0.03923534004884343,0.037373474509473925
53,2,preprocessed,AF7,28.769548009857342,9.24212204367439,490.3863755924011,3.498211626214354,0.03260105107516461,0.03682639147016169
53,2,preprocessed,AF3,21.587190384618715,7.850762574166284,418.55481426715596,3.329381238937849,0.03731372212408003,0.04443573666823217
53,2,preprocessed,AF4,26.86536327718247,9.102246807998284,420.18212539214824,4.770405850264284,0.033332041179109186,0.0659189449139677
53,2,preprocessed,AF8,47.112571758694855,12.143962434061198,935.8616617628434,5.49815907179825,0.02593353527857922,0.036927424305171666
53,2,preprocessed,PO3,15.100199904203691,7.012660320111145,694.1985026841182,3.7053460755424754,0.039013827896132953,0.03107775059732468
53,2,preprocessed,PO4,15.7712396568345,8.561240952437455,219.80312568707237,4.6178739241896976,0.03251244621408042,0.03123562937139487
